'Start Wavelength	183.833
'End Wavelength	1047.133
'Gate Delay	5.000
'Gate Width (ms)	1.050
'Laser Output Level	0.000
'X Position	0.000
'Y Position	0.000
'Z Position	0.000
'Grid Point Number	1.000
'Shot Number	100.000
183.833	437.000
183.903	343.000
183.973	-162
184.042	393
184.112	217
184.182	317
184.252	184
184.321	432
184.391	364
184.461	697
184.531	-317
184.600	123
184.670	-115
184.740	583
184.809	-385
184.879	360
184.949	-994
185.018	159
185.088	-426
185.158	957
185.228	-151
185.297	175
185.367	-318
185.436	167
185.506	-369
185.576	172
185.645	-225
185.715	13
185.785	-290
185.854	335
185.924	218
185.993	-93
186.063	-150
186.133	-207
186.202	-431
186.272	-336
186.341	-525
186.411	305
186.481	516
186.550	1150
186.620	-279
186.689	-409
186.759	-503
186.828	713
186.898	-578
186.967	334
187.037	-307
187.106	94
187.176	-83
187.246	406
187.315	-59
187.385	560
187.454	-258
187.524	195
187.593	470
187.662	287
187.732	717
187.801	188
187.871	717
187.940	-364
188.010	249
188.079	127
188.149	641
188.218	791
188.288	-166
188.357	758
188.426	26
188.496	305
188.565	-659
188.635	102
188.704	558
188.773	117
188.843	-352
188.912	-59
188.981	765
189.051	-376
189.120	783
189.190	265
189.259	423
189.328	256
189.398	-99
189.467	447
189.536	-584
189.606	76
189.675	388
189.744	232
189.813	-450
189.883	503
189.952	44
190.021	1433
190.091	1424
190.160	734
190.229	682
190.298	478
190.368	463
190.437	-411
190.506	-187
190.575	-116
190.645	-131
190.714	724
190.783	-6
190.852	171
190.922	-191
190.991	-602
191.060	1183
191.129	-107
191.198	-280
191.268	256
191.337	161
191.406	43
191.475	-565
191.544	271
191.613	-566
191.683	-254
191.752	-800
191.821	-72
191.890	-730
191.959	-85
192.028	-356
192.097	631
192.166	-835
192.236	-39
192.305	-161
192.374	178
192.443	382
192.512	176
192.581	-125
192.650	750
192.719	43
192.788	767
192.857	123
192.926	385
192.995	58
193.064	152
193.133	-284
193.202	539
193.271	-2
193.340	-70
193.409	397
193.478	811
193.547	647
193.616	535
193.685	-693
193.754	313
193.823	-535
193.892	391
193.961	270
194.030	145
194.099	-578
194.168	1242
194.237	-240
194.306	-438
194.375	-964
194.444	872
194.513	4
194.582	381
194.651	22
194.720	973
194.788	-185
194.857	324
194.926	69
194.995	1033
195.064	508
195.133	510
195.202	331
195.270	-86
195.339	-237
195.408	-64
195.477	-440
195.546	764
195.615	554
195.683	108
195.752	90
195.821	-64
195.890	859
195.959	1170
196.027	199
196.096	841
196.165	67
196.234	207
196.303	-77
196.371	336
196.440	-553
196.509	496
196.578	-127
196.646	365
196.715	-285
196.784	898
196.853	-76
196.921	233
196.990	-443
197.059	817
197.127	-537
197.196	100
197.265	599
197.333	-474
197.402	4
197.471	22
197.539	2
197.608	552
197.677	1840
197.745	600
197.814	613
197.883	553
197.951	881
198.020	457
198.088	220
198.157	810
198.226	1530
198.294	449
198.363	454
198.431	158
198.500	1180
198.569	1545
198.637	333
198.706	165
198.774	1179
198.843	1043
198.911	207
198.980	831
199.048	-251
199.117	708
199.185	323
199.254	-108
199.322	222
199.391	103
199.459	14
199.528	406
199.596	-298
199.665	-83
199.733	-190
199.802	545
199.870	-1009
199.939	378
200.007	522
200.076	629
200.144	-66
200.213	-609
200.281	31
200.349	258
200.418	731
200.486	290
200.555	-113
200.623	737
200.691	-153
200.760	137
200.828	-87
200.897	444
200.965	305
201.033	14
201.102	-334
201.170	477
201.238	-233
201.307	149
201.375	-811
201.443	304
201.512	-12
201.580	696
201.648	-127
201.716	555
201.785	137
201.853	-320
201.921	-409
201.990	1129
202.058	-562
202.126	652
202.194	-492
202.263	-220
202.331	-447
202.399	-81
202.467	-37
202.536	2927
202.604	1429
202.672	-326
202.740	-84
202.808	123
202.877	309
202.945	-169
203.013	-252
203.081	-127
203.149	-144
203.218	43
203.286	-156
203.354	-345
203.422	-247
203.490	824
203.558	-375
203.626	-17
203.695	40
203.763	-70
203.831	-136
203.899	-33
203.967	-286
204.035	822
204.103	-727
204.171	-249
204.239	-136
204.307	690
204.375	-114
204.443	193
204.512	-90
204.580	-670
204.648	-744
204.716	529
204.784	-228
204.852	439
204.920	-251
204.988	314
205.056	189
205.124	596
205.192	-135
205.260	257
205.328	-784
205.396	447
205.464	25
205.532	250
205.600	543
205.667	-113
205.735	1703
205.803	2543
205.871	-16
205.939	793
206.007	-419
206.075	104
206.143	-460
206.211	-541
206.279	-171
206.347	975
206.414	187
206.482	96
206.550	-801
206.618	469
206.686	-92
206.754	502
206.822	1533
206.889	-728
206.957	5
207.025	406
207.093	-545
207.161	-280
207.229	-10
207.296	298
207.364	114
207.432	14
207.500	-153
207.567	-624
207.635	-16
207.703	-132
207.771	244
207.839	169
207.906	-205
207.974	11
208.042	491
208.109	124
208.177	293
208.245	707
208.313	-239
208.380	978
208.448	570
208.516	-113
208.583	836
208.651	391
208.719	-515
208.786	2767
208.854	5843
208.922	5768
208.989	1292
209.057	732
209.125	-171
209.192	439
209.260	-479
209.327	419
209.395	612
209.463	541
209.530	-515
209.598	-565
209.665	-725
209.733	-42
209.801	314
209.868	19
209.936	-152
210.003	-126
210.071	1199
210.138	443
210.206	439
210.273	1149
210.341	-235
210.408	927
210.476	-334
210.543	27
210.611	60
210.678	277
210.746	-106
210.813	-122
210.881	474
210.948	-38
211.016	217
211.083	-453
211.151	53
211.218	689
211.285	252
211.353	470
211.420	243
211.488	-336
211.555	289
211.622	-321
211.690	192
211.757	540
211.825	-671
211.892	-426
211.959	574
212.027	498
212.094	-304
212.161	-103
212.229	314
212.296	3014
212.363	9984
212.431	3026
212.498	550
212.565	497
212.633	-192
212.700	112
212.767	-352
212.835	907
212.902	-185
212.969	480
213.036	94
213.104	154
213.171	13
213.238	119
213.305	85
213.373	502
213.440	-351
213.507	511
213.574	-11
213.641	-703
213.709	-445
213.776	658
213.843	690
213.910	318
213.977	-851
214.045	315
214.112	-145
214.179	340
214.246	-550
214.313	173
214.380	-276
214.447	548
214.515	224
214.582	427
214.649	116
214.716	451
214.783	202
214.850	623
214.917	101
214.984	784
215.051	296
215.118	440
215.185	247
215.253	267
215.320	-222
215.387	299
215.454	-6
215.521	-247
215.588	-368
215.655	59
215.722	-216
215.789	-230
215.856	383
215.923	952
215.990	-672
216.057	-213
216.124	633
216.191	-97
216.258	-378
216.325	219
216.391	-19
216.458	720
216.525	22
216.592	2479
216.659	1700
216.726	1207
216.793	155
216.860	276
216.927	122
216.994	135
217.061	462
217.127	111
217.194	224
217.261	694
217.328	3
217.395	580
217.462	67
217.529	138
217.595	414
217.662	599
217.729	1590
217.796	1652
217.863	-11
217.929	-420
217.996	236
218.063	712
218.130	-219
218.196	-243
218.263	-657
218.330	662
218.397	-346
218.463	340
218.530	-101
218.597	2381
218.664	1588
218.730	376
218.797	-243
218.864	366
218.930	-850
218.997	-121
219.064	931
219.131	2356
219.197	-87
219.264	20
219.331	259
219.397	-26
219.464	-131
219.530	1621
219.597	46
219.664	-315
219.730	-92
219.797	-1055
219.864	-2
219.930	1089
219.997	2982
220.063	1879
220.130	63
220.196	777
220.263	771
220.330	1612
220.396	2111
220.463	1106
220.529	500
220.596	1244
220.662	231
220.729	4671
220.795	1834
220.862	1895
220.928	4018
220.995	5802
221.061	5781
221.128	4244
221.194	864
221.261	-47
221.327	-182
221.394	421
221.460	930
221.526	643
221.593	6371
221.659	3191
221.726	4065
221.792	2955
221.859	939
221.925	495
221.991	1
222.058	-235
222.124	2036
222.190	721
222.257	197
222.323	204
222.390	256
222.456	-40
222.522	-697
222.589	260
222.655	-727
222.721	-302
222.788	-357
222.854	305
222.920	180
222.986	-209
223.053	-723
223.119	253
223.185	-851
223.251	-258
223.318	-855
223.384	32
223.450	-855
223.516	-304
223.583	-828
223.649	-496
223.715	-221
223.781	170
223.848	50
223.914	-683
223.980	-360
224.046	-424
224.112	322
224.178	407
224.245	-514
224.311	892
224.377	-779
224.443	114
224.509	-625
224.575	349
224.641	-1409
224.708	-265
224.774	-527
224.840	131
224.906	188
224.972	-619
225.038	-649
225.104	-955
225.170	-192
225.236	98
225.302	-693
225.368	-62
225.434	223
225.500	248
225.566	156
225.632	383
225.699	165
225.765	24
225.831	-107
225.897	562
225.963	220
226.028	616
226.094	114
226.160	1484
226.226	3087
226.292	6594
226.358	2090
226.424	1778
226.490	3
226.556	1297
226.622	282
226.688	1059
226.754	1343
226.820	9782
226.886	7142
226.951	1425
227.017	921
227.083	924
227.149	828
227.215	1012
227.281	-99
227.347	925
227.412	923
227.478	6785
227.544	4471
227.610	1004
227.676	-434
227.742	384
227.807	249
227.873	767
227.939	352
228.005	507
228.070	-683
228.136	-428
228.202	-83
228.268	556
228.333	604
228.399	1530
228.465	-840
228.531	-750
228.596	-842
228.662	1729
228.728	998
228.793	211
228.859	-472
228.925	1208
228.990	-867
229.056	309
229.122	-596
229.187	217
229.253	-866
229.319	-77
229.384	747
229.450	-230
229.516	-1091
229.581	1124
229.647	-595
229.712	2565
229.778	2573
229.844	1635
229.909	101
229.975	924
230.040	1071
230.106	779
230.171	559
230.237	1421
230.302	1690
230.368	192
230.433	361
230.499	427
230.564	429
230.630	14
230.695	-414
230.761	-367
230.826	959
230.892	616
230.957	-219
231.023	279
231.088	4
231.154	184
231.219	70
231.285	930
231.350	271
231.415	-37
231.481	-417
231.546	340
231.612	-374
231.677	-466
231.742	-104
231.808	-585
231.873	-775
231.938	1841
232.004	132
232.069	61
232.135	-214
232.200	278
232.265	-768
232.330	-104
232.396	-517
232.461	248
232.526	45
232.592	649
232.657	1356
232.722	648
232.788	662
232.853	447
232.918	-784
232.983	-333
233.048	1114
233.114	1273
233.179	1577
233.244	2541
233.309	178
233.375	1037
233.440	116
233.505	-768
233.570	-522
233.635	180
233.700	678
233.766	2174
233.831	-196
233.896	-52
233.961	146
234.026	566
234.091	325
234.156	553
234.222	788
234.287	6275
234.352	4513
234.417	1925
234.482	598
234.547	725
234.612	439
234.677	321
234.742	5350
234.807	3202
234.872	1064
234.937	608
235.002	166
235.067	304
235.132	149
235.197	64
235.262	-53
235.327	510
235.392	389
235.457	948
235.522	36
235.587	245
235.652	-945
235.717	676
235.782	279
235.847	2323
235.912	2470
235.977	3196
236.042	549
236.107	637
236.172	724
236.236	-115
236.301	482
236.366	1654
236.431	2795
236.496	1486
236.561	2230
236.626	13552
236.691	8500
236.755	3355
236.820	2380
236.885	1481
236.950	553
237.015	1764
237.079	1436
237.144	3338
237.209	14351
237.274	25002
237.339	8029
237.403	2919
237.468	1593
237.533	781
237.598	941
237.662	758
237.727	1018
237.792	1890
237.856	1817
237.921	1102
237.986	1933
238.050	2327
238.115	8913
238.180	6909
238.245	1363
238.309	2247
238.374	443
238.438	954
238.503	-32
238.568	853
238.632	246
238.697	458
238.762	3032
238.826	4102
238.891	1106
238.955	1236
239.020	665
239.085	1211
239.149	224
239.214	367
239.278	386
239.343	-116
239.407	1414
239.472	8616
239.536	5642
239.601	2230
239.665	253
239.730	3218
239.794	11885
239.859	9333
239.923	2754
239.988	674
240.052	551
240.117	332
240.181	120
240.246	652
240.310	773
240.374	4662
240.439	7994
240.503	2069
240.568	3167
240.632	4148
240.696	998
240.761	600
240.825	-510
240.890	600
240.954	4451
241.018	8188
241.083	2980
241.147	-38
241.211	1594
241.276	2776
241.340	837
241.404	801
241.469	1217
241.533	1014
241.597	721
241.661	11
241.726	720
241.790	390
241.854	413
241.919	938
241.983	494
242.047	436
242.111	58
242.175	199
242.240	857
242.304	642
242.368	438
242.432	494
242.496	-387
242.561	325
242.625	673
242.689	818
242.753	332
242.817	1017
242.881	130
242.946	-461
243.010	683
243.074	1062
243.138	-123
243.202	997
243.266	-329
243.330	1618
243.394	10637
243.458	28359
243.522	6793
243.586	2185
243.651	736
243.715	2524
243.779	2428
243.843	2949
243.907	3402
243.971	2009
244.035	866
244.099	573
244.163	1752
244.227	2504
244.291	3017
244.355	1057
244.419	277
244.483	1040
244.546	-127
244.610	546
244.674	686
244.738	1179
244.802	223
244.866	380
244.930	224
244.994	590
245.058	698
245.122	2677
245.186	1434
245.249	1777
245.313	507
245.377	593
245.441	26
245.505	797
245.569	362
245.632	1412
245.696	3913
245.760	2317
245.824	1042
245.888	685
245.951	259
246.015	833
246.079	945
246.143	7020
246.207	11862
246.270	2912
246.334	1410
246.398	1963
246.461	3295
246.525	2525
246.589	1143
246.653	1865
246.716	1797
246.780	2621
246.844	3030
246.907	996
246.971	694
247.035	1362
247.098	1369
247.162	5739
247.226	16795
247.289	6012
247.353	2235
247.416	4851
247.480	3053
247.544	2601
247.607	2248
247.671	1673
247.734	1439
247.798	1337
247.861	6086
247.925	15065
247.989	4721
248.052	1770
248.116	2453
248.179	5174
248.243	26460
248.306	22973
248.370	15070
248.433	4522
248.497	4024
248.560	6003
248.624	6974
248.687	10679
248.751	26679
248.814	12240
248.877	13262
248.941	19082
249.004	32158
249.068	25790
249.131	8213
249.194	5587
249.258	5694
249.321	4864
249.385	4063
249.448	3296
249.511	5581
249.575	36321
249.638	55041
249.701	69474
249.765	29687
249.828	10330
249.891	7072
249.955	4259
250.018	13329
250.081	13311
250.145	5237
250.208	4770
250.271	4492
250.334	3927
250.398	2663
250.461	3988
250.524	5840
250.587	33369
250.651	48451
250.714	12853
250.777	7855
250.840	5148
250.903	4962
250.967	7618
251.030	16402
251.093	6363
251.156	5993
251.219	5375
251.282	8015
251.345	46042
251.409	36010
251.472	22829
251.535	84099
251.598	48667
251.661	15302
251.724	20774
251.787	20030
251.850	52166
251.913	21962
251.976	8220
252.039	6062
252.103	5525
252.166	11831
252.229	29613
252.292	29464
252.355	67971
252.418	21691
252.481	10277
252.544	6422
252.607	8327
252.670	23183
252.733	29223
252.796	64792
252.858	34800
252.921	15992
252.984	8777
253.047	5102
253.110	3933
253.173	7312
253.236	4808
253.299	4209
253.362	5072
253.425	5703
253.488	13931
253.550	6798
253.613	7545
253.676	6706
253.739	3224
253.802	4169
253.865	3705
253.928	3304
253.990	9210
254.053	13845
254.116	8271
254.179	6050
254.242	3237
254.304	6890
254.367	6853
254.430	4761
254.493	9845
254.555	15394
254.618	6504
254.681	2985
254.743	2840
254.806	2844
254.869	11070
254.932	9363
254.994	3278
255.057	2048
255.120	1776
255.182	583
255.245	2135
255.308	559
255.370	1079
255.433	1047
255.496	387
255.558	599
255.621	1638
255.683	88
255.746	1417
255.809	499
255.871	747
255.934	504
255.996	89
256.059	203
256.121	1792
256.184	4821
256.246	3365
256.309	2526
256.371	1948
256.434	1085
256.496	435
256.559	826
256.621	1131
256.684	6702
256.746	17262
256.809	5627
256.871	1314
256.934	1981
256.996	1481
257.059	1040
257.121	1350
257.183	742
257.246	253
257.308	256
257.371	4842
257.433	26449
257.495	20636
257.558	10943
257.620	6062
257.683	2337
257.745	2173
257.807	-5
257.870	973
257.932	561
257.994	284
258.056	566
258.119	1466
258.181	4115
258.243	1384
258.306	946
258.368	7054
258.430	5613
258.492	9787
258.555	10150
258.617	2073
258.679	1817
258.741	3382
258.803	929
258.866	1090
258.928	1106
258.990	185
259.052	922
259.114	2444
259.177	1342
259.239	1462
259.301	5649
259.363	2439
259.425	1666
259.487	665
259.549	766
259.611	182
259.674	1793
259.736	8085
259.798	14612
259.860	25825
259.922	16897
259.984	3096
260.046	1143
260.108	2062
260.170	719
260.232	687
260.294	1167
260.356	1162
260.418	1237
260.480	5514
260.542	3268
260.604	11336
260.666	14552
260.728	3109
260.790	1669
260.852	904
260.914	1390
260.976	998
261.038	1791
261.100	15127
261.161	11545
261.223	3120
261.285	6493
261.347	9266
261.409	971
261.471	1485
261.533	498
261.595	900
261.656	3446
261.718	10323
261.780	1877
261.842	1503
261.904	747
261.966	1249
262.027	901
262.089	3145
262.151	2126
262.213	1914
262.274	3964
262.336	2577
262.398	2350
262.460	3889
262.521	8894
262.583	2133
262.645	947
262.706	2439
262.768	8204
262.830	2990
262.892	1181
262.953	2141
263.015	19226
263.077	43521
263.138	10448
263.200	4415
263.261	1293
263.323	2284
263.385	265
263.446	772
263.508	4794
263.569	2251
263.631	928
263.693	121
263.754	-51
263.816	-453
263.877	-672
263.939	253
264.000	-189
264.062	959
264.123	748
264.185	-501
264.246	-913
264.308	2455
264.369	3339
264.431	452
264.492	28
264.554	333
264.615	261
264.677	836
264.738	29
264.800	-165
264.861	1015
264.922	-140
264.984	51
265.045	229
265.107	643
265.168	7791
265.229	5232
265.291	1092
265.352	463
265.413	713
265.475	-746
265.536	-64
265.597	347
265.659	-411
265.720	-765
265.781	243
265.843	-946
265.904	1212
265.965	14712
266.026	8142
266.088	1973
266.149	1366
266.210	1036
266.271	-241
266.333	871
266.394	210
266.455	-540
266.516	52
266.577	1342
266.639	3323
266.700	359
266.761	287
266.822	1
266.883	-381
266.944	-611
267.005	783
267.067	264
267.128	46
267.189	-410
267.250	1009
267.311	-164
267.372	-180
267.433	388
267.494	-2
267.555	-251
267.616	-694
267.677	-30
267.738	-566
267.799	2480
267.860	5959
267.921	683
267.982	649
268.043	274
268.104	-295
268.165	-815
268.226	170
268.287	-361
268.348	524
268.409	432
268.470	-1041
268.531	-762
268.592	-97
268.653	-1053
268.714	-804
268.775	224
268.836	3164
268.896	2644
268.957	972
269.018	-1021
269.079	747
269.140	-379
269.201	-257
269.262	-660
269.322	11
269.383	-736
269.444	472
269.505	621
269.565	1882
269.626	957
269.687	181
269.748	-259
269.809	970
269.869	1349
269.930	555
269.991	-807
270.051	-420
270.112	-636
270.173	-349
270.234	-677
270.294	576
270.355	-292
270.416	31
270.476	86
270.537	2382
270.598	6174
270.658	1460
270.719	172
270.779	1100
270.840	-341
270.901	972
270.961	1036
271.022	332
271.082	1228
271.143	1633
271.203	279
271.264	648
271.325	1078
271.385	4203
271.446	1984
271.506	926
271.567	1246
271.627	598
271.688	274
271.748	3802
271.809	24469
271.869	33530
271.930	7332
271.990	15616
272.050	29001
272.111	7154
272.171	1984
272.232	3648
272.292	20573
272.352	8723
272.413	4345
272.473	3107
272.534	3690
272.594	2468
272.654	3094
272.715	5250
272.775	1749
272.835	2274
272.896	740
272.956	1076
273.016	1561
273.077	2340
273.137	1186
273.197	1766
273.257	10703
273.318	22677
273.378	6332
273.438	7356
273.498	16201
273.559	5909
273.619	11738
273.679	27571
273.739	7306
273.799	4500
273.860	11262
273.920	19237
273.980	3398
274.040	2262
274.100	4518
274.160	30708
274.221	24385
274.281	13799
274.341	19040
274.401	10518
274.461	3819
274.521	3475
274.581	16570
274.641	19807
274.701	6015
274.761	3321
274.821	8247
274.882	29389
274.942	31903
275.002	17528
275.062	4252
275.122	2326
275.182	1386
275.242	2307
275.302	3981
275.362	4740
275.421	2910
275.481	13840
275.541	29508
275.601	15703
275.661	7313
275.721	3989
275.781	1595
275.841	655
275.901	2003
275.961	1468
276.021	425
276.081	3815
276.140	10833
276.200	4090
276.260	2149
276.320	2069
276.380	1904
276.440	1017
276.499	765
276.559	651
276.619	1612
276.679	6698
276.738	4292
276.798	2031
276.858	2275
276.918	1313
276.978	714
277.037	1717
277.097	2373
277.157	10808
277.216	3497
277.276	1415
277.336	1199
277.395	1466
277.455	1096
277.515	2127
277.574	13251
277.634	22036
277.694	5103
277.753	26698
277.813	17335
277.873	16795
277.932	57800
277.992	15569
278.051	16868
278.111	21453
278.171	8098
278.230	26709
278.290	13088
278.349	5080
