'Start Wavelength	183.833
'End Wavelength	1047.133
'Gate Delay	5.000
'Gate Width (ms)	1.050
'Laser Output Level	0.000
'X Position	0.000
'Y Position	0.000
'Z Position	0.000
'Grid Point Number	1.000
'Shot Number	100.000
183.833	-213.000
183.903	214.000
183.973	-361
184.042	231
184.112	443
184.182	-14
184.252	73
184.321	641
184.391	-423
184.461	-187
184.531	-504
184.600	480
184.670	-636
184.740	278
184.809	-111
184.879	-576
184.949	-160
185.018	65
185.088	-472
185.158	410
185.228	-109
185.297	776
185.367	-416
185.436	-642
185.506	-434
185.576	333
185.645	-97
185.715	84
185.785	-512
185.854	-75
185.924	-479
185.993	-65
186.063	-931
186.133	180
186.202	131
186.272	521
186.341	-153
186.411	-361
186.481	114
186.550	-63
186.620	-156
186.689	155
186.759	150
186.828	125
186.898	-614
186.967	854
187.037	180
187.106	-44
187.176	-187
187.246	-87
187.315	-663
187.385	-27
187.454	367
187.524	46
187.593	-114
187.662	460
187.732	2
187.801	683
187.871	125
187.940	-45
188.010	-307
188.079	-365
188.149	-351
188.218	-60
188.288	-51
188.357	670
188.426	-223
188.496	-89
188.565	-769
188.635	-327
188.704	-25
188.773	-198
188.843	273
188.912	11
188.981	442
189.051	196
189.120	229
189.190	146
189.259	-42
189.328	-146
189.398	295
189.467	-122
189.536	440
189.606	499
189.675	326
189.744	1098
189.813	-344
189.883	190
189.952	-163
190.021	859
190.091	923
190.160	229
190.229	-842
190.298	-264
190.368	-404
190.437	-85
190.506	98
190.575	478
190.645	402
190.714	489
190.783	446
190.852	250
190.922	677
190.991	273
191.060	-226
191.129	119
191.198	-482
191.268	235
191.337	-681
191.406	203
191.475	-681
191.544	-248
191.613	-515
191.683	301
191.752	-121
191.821	502
191.890	-171
191.959	-152
192.028	-302
192.097	245
192.166	-235
192.236	420
192.305	-240
192.374	-649
192.443	-308
192.512	-350
192.581	194
192.650	27
192.719	-807
192.788	844
192.857	-650
192.926	-36
192.995	-960
193.064	-300
193.133	-316
193.202	-59
193.271	289
193.340	226
193.409	-692
193.478	-178
193.547	208
193.616	465
193.685	451
193.754	607
193.823	-757
193.892	365
193.961	-542
194.030	23
194.099	241
194.168	212
194.237	-111
194.306	385
194.375	-7
194.444	-174
194.513	6
194.582	-97
194.651	246
194.720	472
194.788	-789
194.857	359
194.926	-131
194.995	210
195.064	230
195.133	-44
195.202	185
195.270	-36
195.339	98
195.408	-79
195.477	-49
195.546	-437
195.615	-372
195.683	421
195.752	-378
195.821	667
195.890	195
195.959	-304
196.027	-55
196.096	-449
196.165	-196
196.234	-335
196.303	32
196.371	188
196.440	-685
196.509	-498
196.578	-369
196.646	62
196.715	-693
196.784	601
196.853	-218
196.921	-297
196.990	-439
197.059	-48
197.127	-233
197.196	-191
197.265	-467
197.333	-590
197.402	-862
197.471	-499
197.539	-812
197.608	639
197.677	310
197.745	719
197.814	9
197.883	37
197.951	-296
198.020	-427
198.088	-487
198.157	-116
198.226	-81
198.294	-19
198.363	38
198.431	-81
198.500	-422
198.569	417
198.637	-14
198.706	1041
198.774	113
198.843	356
198.911	169
198.980	-201
199.048	-352
199.117	478
199.185	-543
199.254	-212
199.322	-436
199.391	-550
199.459	-313
199.528	81
199.596	-662
199.665	277
199.733	-72
199.802	-1
199.870	-304
199.939	477
200.007	-167
200.076	44
200.144	-71
200.213	42
200.281	-234
200.349	495
200.418	-70
200.486	15
200.555	-1028
200.623	-104
200.691	674
200.760	-169
200.828	-1006
200.897	68
200.965	-161
201.033	168
201.102	-300
201.170	677
201.238	-311
201.307	28
201.375	-879
201.443	172
201.512	-296
201.580	-23
201.648	-72
201.716	10
201.785	-264
201.853	1
201.921	-594
201.990	426
202.058	-237
202.126	459
202.194	-655
202.263	26
202.331	-516
202.399	-405
202.467	-122
202.536	1129
202.604	-204
202.672	309
202.740	-325
202.808	223
202.877	-88
202.945	-286
203.013	214
203.081	-271
203.149	-354
203.218	265
203.286	-521
203.354	-444
203.422	-662
203.490	241
203.558	-770
203.626	-152
203.695	-451
203.763	-810
203.831	-451
203.899	301
203.967	-708
204.035	748
204.103	-737
204.171	494
204.239	-164
204.307	150
204.375	-121
204.443	-248
204.512	-617
204.580	56
204.648	-152
204.716	-272
204.784	222
204.852	-465
204.920	193
204.988	179
205.056	-304
205.124	-9
205.192	-114
205.260	-311
205.328	-395
205.396	105
205.464	-254
205.532	-552
205.600	-796
205.667	-547
205.735	-780
205.803	1218
205.871	-317
205.939	-29
206.007	-521
206.075	-684
206.143	522
206.211	-658
206.279	-454
206.347	4
206.414	405
206.482	46
206.550	-307
206.618	-467
206.686	-261
206.754	262
206.822	-476
206.889	-714
206.957	-415
207.025	-114
207.093	-605
207.161	-90
207.229	-514
207.296	-15
207.364	72
207.432	52
207.500	-235
207.567	-308
207.635	-339
207.703	-236
207.771	-750
207.839	41
207.906	-411
207.974	-673
208.042	-419
208.109	101
208.177	-595
208.245	572
208.313	-123
208.380	-260
208.448	-393
208.516	-261
208.583	-589
208.651	22
208.719	-756
208.786	-57
208.854	-134
208.922	-239
208.989	-1392
209.057	-59
209.125	-731
209.192	-812
209.260	-398
209.327	-63
209.395	1
209.463	-486
209.530	126
209.598	-583
209.665	-308
209.733	592
209.801	-968
209.868	-416
209.936	325
210.003	-53
210.071	-29
210.138	-548
210.206	319
210.273	-83
210.341	-776
210.408	168
210.476	125
210.543	-256
210.611	-546
210.678	439
210.746	-149
210.813	-469
210.881	375
210.948	-33
211.016	357
211.083	-7
211.151	-172
211.218	-65
211.285	155
211.353	-375
211.420	-261
211.488	-206
211.555	-667
211.622	-702
211.690	-494
211.757	49
211.825	590
211.892	-286
211.959	-116
212.027	109
212.094	-338
212.161	-167
212.229	77
212.296	720
212.363	3438
212.431	891
212.498	-126
212.565	-237
212.633	163
212.700	-163
212.767	-922
212.835	54
212.902	-430
212.969	-472
213.036	224
213.104	-78
213.171	396
213.238	335
213.305	-550
213.373	-99
213.440	-161
213.507	-594
213.574	-194
213.641	-382
213.709	-150
213.776	-713
213.843	-323
213.910	209
213.977	-942
214.045	-132
214.112	-236
214.179	-254
214.246	-259
214.313	398
214.380	-227
214.447	-181
214.515	-72
214.582	-883
214.649	-242
214.716	-76
214.783	-828
214.850	-34
214.917	-402
214.984	213
215.051	155
215.118	-190
215.185	-448
215.253	-542
215.320	-527
215.387	68
215.454	-179
215.521	-402
215.588	-295
215.655	301
215.722	73
215.789	-421
215.856	-205
215.923	243
215.990	-186
216.057	-365
216.124	-113
216.191	-317
216.258	-181
216.325	491
216.391	-494
216.458	-284
216.525	-267
216.592	815
216.659	475
216.726	-264
216.793	-69
216.860	-571
216.927	295
216.994	562
217.061	-583
217.127	-145
217.194	95
217.261	841
217.328	434
217.395	465
217.462	223
217.529	11
217.595	-186
217.662	148
217.729	400
217.796	607
217.863	441
217.929	266
217.996	-70
218.063	-332
218.130	359
218.196	-546
218.263	-1008
218.330	-647
218.397	-233
218.463	-378
218.530	236
218.597	643
218.664	491
218.730	283
218.797	539
218.864	-1
218.930	-220
218.997	-288
219.064	79
219.131	956
219.197	429
219.264	-566
219.331	-579
219.397	-257
219.464	53
219.530	776
219.597	-157
219.664	-239
219.730	-256
219.797	-91
219.864	179
219.930	-319
219.997	1105
220.063	991
220.130	377
220.196	334
220.263	900
220.330	221
220.396	123
220.463	998
220.529	-348
220.596	-307
220.662	-551
220.729	2566
220.795	301
220.862	875
220.928	1649
220.995	2758
221.061	1718
221.128	1259
221.194	738
221.261	613
221.327	-230
221.394	-132
221.460	-66
221.526	571
221.593	2072
221.659	880
221.726	1495
221.792	1301
221.859	-305
221.925	583
221.991	-323
222.058	-75
222.124	313
222.190	-53
222.257	-1002
222.323	-127
222.390	85
222.456	406
222.522	-377
222.589	-129
222.655	246
222.721	242
222.788	-737
222.854	-269
222.920	-299
222.986	48
223.053	-714
223.119	129
223.185	-278
223.251	-382
223.318	-121
223.384	141
223.450	-376
223.516	-231
223.583	-972
223.649	-489
223.715	33
223.781	-227
223.848	-608
223.914	-125
223.980	-978
224.046	7
224.112	-274
224.178	-88
224.245	-1038
224.311	76
224.377	-35
224.443	-544
224.509	99
224.575	527
224.641	-180
224.708	471
224.774	90
224.840	372
224.906	132
224.972	-277
225.038	-449
225.104	62
225.170	366
225.236	-112
225.302	-133
225.368	-537
225.434	-379
225.500	74
225.566	-809
225.632	-41
225.699	-565
225.765	-279
225.831	-729
225.897	521
225.963	279
226.028	49
226.094	200
226.160	689
226.226	959
226.292	3373
226.358	643
226.424	910
226.490	-63
226.556	299
226.622	97
226.688	886
226.754	517
226.820	4304
226.886	2651
226.951	904
227.017	522
227.083	-31
227.149	537
227.215	653
227.281	-36
227.347	349
227.412	-768
227.478	1163
227.544	871
227.610	341
227.676	-1038
227.742	-400
227.807	-394
227.873	512
227.939	-190
228.005	-129
228.070	-569
228.136	306
228.202	-704
228.268	-328
228.333	-223
228.399	-228
228.465	-506
228.531	-37
228.596	-515
228.662	484
228.728	307
228.793	391
228.859	-727
228.925	874
228.990	-412
229.056	-422
229.122	255
229.187	622
229.253	-191
229.319	-285
229.384	-300
229.450	-646
229.516	-1127
229.581	345
229.647	-379
229.712	436
229.778	439
229.844	989
229.909	130
229.975	539
230.040	-437
230.106	-177
230.171	-288
230.237	393
230.302	129
230.368	56
230.433	525
230.499	1062
230.564	-121
230.630	-739
230.695	-19
230.761	-133
230.826	192
230.892	-490
230.957	-970
231.023	-62
231.088	-339
231.154	196
231.219	-452
231.285	567
231.350	-18
231.415	-323
231.481	-332
231.546	-94
231.612	-313
231.677	185
231.742	-164
231.808	-295
231.873	-696
231.938	540
232.004	-187
232.069	-211
232.135	-1171
232.200	3
232.265	-799
232.330	-878
232.396	29
232.461	-687
232.526	43
232.592	-405
232.657	54
232.722	261
232.788	-64
232.853	246
232.918	-59
232.983	35
233.048	142
233.114	918
233.179	1420
233.244	655
233.309	-217
233.375	-83
233.440	-336
233.505	26
233.570	-361
233.635	229
233.700	672
233.766	796
233.831	-310
233.896	251
233.961	-11
234.026	81
234.091	-535
234.156	11
234.222	679
234.287	2613
234.352	1928
234.417	1718
234.482	772
234.547	362
234.612	-253
234.677	738
234.742	2199
234.807	298
234.872	827
234.937	912
235.002	866
235.067	442
235.132	162
235.197	204
235.262	-627
235.327	734
235.392	679
235.457	1184
235.522	-242
235.587	319
235.652	-208
235.717	773
235.782	721
235.847	1496
235.912	1277
235.977	1371
236.042	377
236.107	497
236.172	-73
236.236	-84
236.301	219
236.366	1288
236.431	1576
236.496	976
236.561	2010
236.626	6921
236.691	2969
236.755	1883
236.820	1163
236.885	1148
236.950	368
237.015	1035
237.079	788
237.144	1712
237.209	6360
237.274	11207
237.339	3090
237.403	1849
237.468	1375
237.533	1453
237.598	1446
237.662	-202
237.727	200
237.792	2070
237.856	1860
237.921	716
237.986	1378
238.050	1164
238.115	4695
238.180	3146
238.245	1096
238.309	1556
238.374	71
238.438	1651
238.503	-244
238.568	1099
238.632	619
238.697	-392
238.762	1554
238.826	2242
238.891	1234
238.955	760
239.020	729
239.085	284
239.149	255
239.214	935
239.278	148
239.343	413
239.407	68
239.472	5493
239.536	1955
239.601	1167
239.665	406
239.730	382
239.794	1125
239.859	3410
239.923	1024
239.988	665
240.052	348
240.117	335
240.181	341
240.246	1016
240.310	158
240.374	2811
240.439	2771
240.503	1103
240.568	1783
240.632	2311
240.696	816
240.761	299
240.825	-153
240.890	124
240.954	1422
241.018	4148
241.083	1829
241.147	288
241.211	896
241.276	1421
241.340	726
241.404	-107
241.469	690
241.533	1664
241.597	-6
241.661	-9
241.726	229
241.790	561
241.854	281
241.919	196
241.983	446
242.047	47
242.111	271
242.175	-229
242.240	404
242.304	377
242.368	61
242.432	534
242.496	399
242.561	575
242.625	678
242.689	-399
242.753	300
242.817	1450
242.881	379
242.946	563
243.010	-7
243.074	-64
243.138	-155
243.202	274
243.266	220
243.330	1040
243.394	3729
243.458	10041
243.522	2003
243.586	1128
243.651	297
243.715	1051
243.779	882
243.843	1803
243.907	1584
243.971	337
244.035	1430
244.099	527
244.163	605
244.227	1923
244.291	1022
244.355	772
244.419	641
244.483	904
244.546	-38
244.610	1188
244.674	904
244.738	-60
244.802	275
244.866	642
244.930	15
244.994	500
245.058	1178
245.122	1157
245.186	712
245.249	251
245.313	-493
245.377	1068
245.441	109
245.505	1308
245.569	874
245.632	794
245.696	1715
245.760	1778
245.824	888
245.888	411
245.951	1178
246.015	638
246.079	824
246.143	3239
246.207	4245
246.270	2203
246.334	1131
246.398	1462
246.461	920
246.525	1763
246.589	1210
246.653	1126
246.716	1246
246.780	2269
246.844	1458
246.907	476
246.971	1822
247.035	1552
247.098	1531
247.162	3109
247.226	6874
247.289	2951
247.353	1288
247.416	1769
247.480	943
247.544	1450
247.607	1851
247.671	1546
247.734	1154
247.798	1532
247.861	3081
247.925	6973
247.989	2194
248.052	1261
248.116	2657
248.179	3158
248.243	10676
248.306	9729
248.370	6345
248.433	2625
248.497	2887
248.560	3166
248.624	3700
248.687	5509
248.751	10031
248.814	7224
248.877	6320
248.941	9143
249.004	13544
249.068	10900
249.131	4154
249.194	2996
249.258	4671
249.321	3046
249.385	2642
249.448	2247
249.511	2576
249.575	3593
249.638	3217
249.701	2585
249.765	2961
249.828	3724
249.891	2734
249.955	2786
250.018	5455
250.081	6855
250.145	3391
250.208	3865
250.271	3375
250.334	3059
250.398	2548
250.461	3931
250.524	4889
250.587	14163
250.651	18729
250.714	6569
250.777	4846
250.840	4391
250.903	3744
250.967	5100
251.030	8540
251.093	4554
251.156	5088
251.219	4132
251.282	5195
251.345	19166
251.409	15415
251.472	11326
251.535	33001
251.598	19861
251.661	8110
251.724	10675
251.787	10441
251.850	21963
251.913	10840
251.976	6404
252.039	4828
252.103	4533
252.166	7421
252.229	14237
252.292	13459
252.355	27701
252.418	10549
252.481	7557
252.544	5072
252.607	6637
252.670	11737
252.733	13263
252.796	25541
252.858	15662
252.921	8727
252.984	6435
253.047	5250
253.110	4727
253.173	4760
253.236	4822
253.299	3971
253.362	4812
253.425	4265
253.488	8410
253.550	4213
253.613	5646
253.676	4518
253.739	3045
253.802	3810
253.865	3987
253.928	3153
253.990	5111
254.053	6738
254.116	5636
254.179	4002
254.242	2718
254.304	3976
254.367	4759
254.430	3568
254.493	4605
254.555	7359
254.618	3739
254.681	1520
254.743	1917
254.806	2395
254.869	6200
254.932	4603
254.994	2096
255.057	1982
255.120	1751
255.182	462
255.245	1024
255.308	1074
255.370	1044
255.433	485
255.496	444
255.558	91
255.621	1491
255.683	192
255.746	1024
255.809	820
255.871	416
255.934	464
255.996	598
256.059	449
256.121	1251
256.184	3316
256.246	2621
256.309	1674
256.371	1502
256.434	800
256.496	1217
256.559	764
256.621	1337
256.684	3909
256.746	8913
256.809	2397
256.871	841
256.934	1831
256.996	857
257.059	1234
257.121	1552
257.183	305
257.246	225
257.308	420
257.371	3279
257.433	11421
257.495	9670
257.558	5828
257.620	3153
257.683	1715
257.745	1471
257.807	779
257.870	1818
257.932	1132
257.994	916
258.056	986
258.119	1256
258.181	2038
258.243	1615
258.306	1414
258.368	2955
258.430	2525
258.492	4314
258.555	4504
258.617	1466
258.679	2090
258.741	1653
258.803	1000
258.866	699
258.928	501
258.990	1269
259.052	981
259.114	2248
259.177	990
259.239	1608
259.301	2907
259.363	1828
259.425	1042
259.487	689
259.549	108
259.611	1274
259.674	1092
259.736	5240
259.798	7158
259.860	11109
259.922	8587
259.984	2458
260.046	868
260.108	1256
260.170	372
260.232	1010
260.294	1582
260.356	408
260.418	1378
260.480	4338
260.542	1785
260.604	6566
260.666	7513
260.728	2093
260.790	1740
260.852	949
260.914	1710
260.976	1287
261.038	2223
261.100	8279
261.161	5902
261.223	2714
261.285	3249
261.347	5031
261.409	1255
261.471	1746
261.533	1178
261.595	1729
261.656	2204
261.718	5943
261.780	1224
261.842	2241
261.904	137
261.966	1431
262.027	2023
262.089	1743
262.151	1826
262.213	1685
262.274	2485
262.336	2534
262.398	1110
262.460	2986
262.521	4781
262.583	2032
262.645	176
262.706	1926
262.768	4201
262.830	2654
262.892	2003
262.953	1249
263.015	9088
263.077	19890
263.138	4887
263.200	2000
263.261	1434
263.323	1446
263.385	128
263.446	951
263.508	2473
263.569	1155
263.631	144
263.693	227
263.754	289
263.816	-2
263.877	95
263.939	-371
264.000	40
264.062	2258
264.123	377
264.185	439
264.246	115
264.308	1141
264.369	2544
264.431	634
264.492	-110
264.554	1465
264.615	670
264.677	252
264.738	36
264.800	-6
264.861	569
264.922	-714
264.984	-679
265.045	-357
265.107	-278
265.168	3867
265.229	2306
265.291	531
265.352	-538
265.413	-744
265.475	-1228
265.536	-330
265.597	-969
265.659	51
265.720	-157
265.781	-282
265.843	-885
265.904	706
265.965	7150
266.026	4315
266.088	813
266.149	461
266.210	475
266.271	129
266.333	-207
266.394	329
266.455	-190
266.516	-93
266.577	-111
266.639	1894
266.700	-39
266.761	-759
266.822	-229
266.883	261
266.944	-685
267.005	852
267.067	-685
267.128	58
267.189	-652
267.250	422
267.311	-914
267.372	-1117
267.433	-447
267.494	-490
267.555	-1186
267.616	-803
267.677	-308
267.738	-571
267.799	607
267.860	2365
267.921	778
267.982	359
268.043	-576
268.104	-331
268.165	-875
268.226	235
268.287	-702
268.348	486
268.409	102
268.470	-244
268.531	-840
268.592	-422
268.653	-866
268.714	26
268.775	-273
268.836	1167
268.896	2217
268.957	147
269.018	-1254
269.079	448
269.140	-796
269.201	-48
269.262	-247
269.322	831
269.383	-609
269.444	492
269.505	600
269.565	1386
269.626	-691
269.687	418
269.748	-867
269.809	263
269.869	764
269.930	-61
269.991	-478
270.051	115
270.112	63
270.173	184
270.234	-393
270.294	791
270.355	399
270.416	-98
270.476	93
270.537	925
270.598	4181
270.658	1468
270.719	103
270.779	1232
270.840	35
270.901	554
270.961	1779
271.022	699
271.082	729
271.143	1699
271.203	980
271.264	467
271.325	69
271.385	4790
271.446	2104
271.506	1217
271.567	1242
271.627	1025
271.688	957
271.748	2326
271.809	14834
271.869	22755
271.930	5457
271.990	10096
272.050	20030
272.111	5492
272.171	2247
272.232	2922
272.292	12387
272.352	6827
272.413	4597
272.473	3829
272.534	3767
272.594	3399
272.654	3872
272.715	6993
272.775	2209
272.835	2751
272.896	696
272.956	2074
273.016	3478
273.077	2809
273.137	2279
273.197	2137
273.257	7875
273.318	18551
273.378	5705
273.438	6756
273.498	13423
273.559	6337
273.619	9861
273.679	22139
273.739	7231
273.799	3989
273.860	10414
273.920	21401
273.980	5223
274.040	3739
274.100	4618
274.160	22882
274.221	22447
274.281	17698
274.341	16547
274.401	11798
274.461	5193
274.521	4708
274.581	17986
274.641	24409
274.701	9502
274.761	4452
274.821	9188
274.882	36337
274.942	27893
275.002	17689
275.062	5846
275.122	4363
275.182	2397
275.242	4425
275.302	5852
275.362	6298
275.421	3853
275.481	13292
275.541	30210
275.601	16449
275.661	7917
275.721	5782
275.781	3825
275.841	2958
275.901	3162
275.961	2985
276.021	2106
276.081	4111
276.140	11985
276.200	5786
276.260	3143
276.320	2290
276.380	2881
276.440	2375
276.499	1748
276.559	1716
276.619	2189
276.679	8534
276.738	5860
276.798	3373
276.858	4174
276.918	2919
276.978	1875
277.037	2311
277.097	2914
277.157	10930
277.216	5316
277.276	2291
277.336	3172
277.395	2488
277.455	1920
277.515	3177
277.574	10614
277.634	23742
277.694	6921
277.753	25223
277.813	21050
277.873	16256
277.932	54388
277.992	19605
278.051	16632
278.111	23649
278.171	10154
278.230	26148
278.290	19138
