'Start Wavelength	183.833
'End Wavelength	1047.133
'Gate Delay	5.000
'Gate Width (ms)	1.050
'Laser Output Level	0.000
'X Position	0.000
'Y Position	0.000
'Z Position	0.000
'Grid Point Number	1.000
'Shot Number	100.000
183.833	359.000
183.903	162.000
183.973	-97
184.042	230
184.112	545
184.182	-132
184.252	452
184.321	96
184.391	307
184.461	333
184.531	-11
184.600	-96
184.670	214
184.740	14
184.809	189
184.879	-240
184.949	67
185.018	-166
185.088	638
185.158	-30
185.228	521
185.297	36
185.367	659
185.436	29
185.506	-217
185.576	361
185.645	580
185.715	417
185.785	221
185.854	-339
185.924	206
185.993	-541
186.063	-196
186.133	-371
186.202	290
186.272	23
186.341	-292
186.411	-232
186.481	-68
186.550	979
186.620	477
186.689	49
186.759	-548
186.828	-296
186.898	302
186.967	1074
187.037	94
187.106	452
187.176	708
187.246	258
187.315	-531
187.385	109
187.454	218
187.524	848
187.593	384
187.662	117
187.732	916
187.801	227
187.871	582
187.940	84
188.010	-38
188.079	-273
188.149	872
188.218	561
188.288	536
188.357	-249
188.426	134
188.496	70
188.565	-85
188.635	178
188.704	455
188.773	324
188.843	498
188.912	657
188.981	319
189.051	593
189.120	-166
189.190	547
189.259	7
189.328	109
189.398	400
189.467	-236
189.536	68
189.606	273
189.675	-459
189.744	-239
189.813	156
189.883	261
189.952	1000
190.021	2540
190.091	3403
190.160	802
190.229	-46
190.298	-279
190.368	281
190.437	336
190.506	954
190.575	255
190.645	130
190.714	98
190.783	77
190.852	123
190.922	714
190.991	417
191.060	96
191.129	-121
191.198	304
191.268	-601
191.337	966
191.406	188
191.475	6
191.544	124
191.613	61
191.683	108
191.752	375
191.821	60
191.890	628
191.959	134
192.028	20
192.097	-144
192.166	-309
192.236	64
192.305	209
192.374	-151
192.443	-77
192.512	416
192.581	106
192.650	219
192.719	-234
192.788	497
192.857	306
192.926	128
192.995	216
193.064	-200
193.133	534
193.202	492
193.271	650
193.340	189
193.409	1171
193.478	821
193.547	1085
193.616	866
193.685	334
193.754	540
193.823	78
193.892	374
193.961	-154
194.030	413
194.099	-658
194.168	-22
194.237	-73
194.306	205
194.375	104
194.444	292
194.513	156
194.582	384
194.651	-251
194.720	62
194.788	273
194.857	39
194.926	2
194.995	685
195.064	223
195.133	437
195.202	760
195.270	749
195.339	807
195.408	44
195.477	289
195.546	1041
195.615	131
195.683	518
195.752	955
195.821	385
195.890	1253
195.959	955
196.027	1278
196.096	358
196.165	240
196.234	444
196.303	948
196.371	226
196.440	1089
196.509	426
196.578	25
196.646	-249
196.715	442
196.784	54
196.853	575
196.921	1238
196.990	13
197.059	758
197.127	442
197.196	-443
197.265	689
197.333	390
197.402	962
197.471	-96
197.539	732
197.608	1669
197.677	3040
197.745	826
197.814	3783
197.883	816
197.951	3826
198.020	1468
198.088	934
198.157	1148
198.226	4207
198.294	997
198.363	1109
198.431	586
198.500	1812
198.569	3719
198.637	715
198.706	832
198.774	4888
198.843	3488
198.911	-96
198.980	-35
199.048	427
199.117	509
199.185	581
199.254	282
199.322	571
199.391	292
199.459	-347
199.528	823
199.596	911
199.665	-44
199.733	486
199.802	-7
199.870	-208
199.939	469
200.007	470
200.076	178
200.144	-242
200.213	106
200.281	750
200.349	579
200.418	411
200.486	133
200.555	-254
200.623	-71
200.691	727
200.760	217
200.828	257
200.897	209
200.965	50
201.033	-308
201.102	762
201.170	-99
201.238	376
201.307	-142
201.375	-507
201.443	569
201.512	16
201.580	410
201.648	200
201.716	358
201.785	1445
201.853	317
201.921	6
201.990	839
202.058	986
202.126	-112
202.194	709
202.263	229
202.331	-133
202.399	210
202.467	1672
202.536	6617
202.604	2616
202.672	449
202.740	555
202.808	-4
202.877	597
202.945	151
203.013	-137
203.081	691
203.149	192
203.218	430
203.286	422
203.354	209
203.422	-141
203.490	-312
203.558	344
203.626	796
203.695	525
203.763	-25
203.831	388
203.899	373
203.967	364
204.035	-38
204.103	-5
204.171	175
204.239	-41
204.307	358
204.375	449
204.443	276
204.512	466
204.580	174
204.648	-46
204.716	71
204.784	372
204.852	-1
204.920	308
204.988	428
205.056	742
205.124	417
205.192	196
205.260	811
205.328	393
205.396	1074
205.464	724
205.532	730
205.600	937
205.667	421
205.735	4982
205.803	5619
205.871	773
205.939	1035
206.007	901
206.075	1117
206.143	573
206.211	419
206.279	903
206.347	469
206.414	960
206.482	350
206.550	1218
206.618	229
206.686	163
206.754	721
206.822	1649
206.889	-260
206.957	224
207.025	71
207.093	518
207.161	585
207.229	771
207.296	770
207.364	525
207.432	-273
207.500	487
207.567	200
207.635	731
207.703	650
207.771	83
207.839	92
207.906	244
207.974	-419
208.042	244
208.109	1139
208.177	1122
208.245	1789
208.313	721
208.380	2661
208.448	862
208.516	-14
208.583	793
208.651	573
208.719	181
208.786	614
208.854	883
208.922	606
208.989	1052
209.057	-117
209.125	225
209.192	811
209.260	746
209.327	1821
209.395	1425
209.463	1016
209.530	413
209.598	835
209.665	726
209.733	51
209.801	1047
209.868	695
209.936	1532
210.003	1141
210.071	1759
210.138	759
210.206	1486
210.273	1097
210.341	895
210.408	903
210.476	29
210.543	1004
210.611	1286
210.678	735
210.746	914
210.813	1532
210.881	1441
210.948	492
211.016	1283
211.083	490
211.151	1125
211.218	892
211.285	381
211.353	1257
211.420	820
211.488	398
211.555	1139
211.622	737
211.690	640
211.757	892
211.825	405
211.892	705
211.959	357
212.027	601
212.094	788
212.161	1086
212.229	2555
212.296	7688
212.363	22285
212.431	6878
212.498	2660
212.565	1411
212.633	872
212.700	1461
212.767	1148
212.835	1204
212.902	883
212.969	1139
213.036	1243
213.104	835
213.171	1195
213.238	1633
213.305	435
213.373	293
213.440	1174
213.507	476
213.574	1142
213.641	511
213.709	893
213.776	2068
213.843	2164
213.910	1547
213.977	1159
214.045	770
214.112	1359
214.179	-123
214.246	876
214.313	254
214.380	1199
214.447	1431
214.515	1752
214.582	516
214.649	705
214.716	652
214.783	675
214.850	1010
214.917	1258
214.984	2139
215.051	2220
215.118	1429
215.185	1398
215.253	1518
215.320	1866
215.387	1218
215.454	616
215.521	296
215.588	569
215.655	422
215.722	1305
215.789	1329
215.856	553
215.923	1375
215.990	769
216.057	995
216.124	1513
216.191	1296
216.258	972
216.325	1361
216.391	2123
216.458	900
216.525	1543
216.592	5327
216.659	4868
216.726	1578
216.793	3074
216.860	1150
216.927	1429
216.994	1572
217.061	2236
217.127	918
217.194	1902
217.261	2426
217.328	3842
217.395	2206
217.462	1515
217.529	572
217.595	1601
217.662	1311
217.729	5348
217.796	3826
217.863	1006
217.929	620
217.996	975
218.063	214
218.130	1009
218.196	547
218.263	418
218.330	514
218.397	42
218.463	82
218.530	1735
218.597	5185
218.664	4847
218.730	896
218.797	913
218.864	286
218.930	744
218.997	218
219.064	1838
219.131	3798
219.197	1607
219.264	1
219.331	764
219.397	364
219.464	1262
219.530	3072
219.597	1874
219.664	308
219.730	1557
219.797	285
219.864	1294
219.930	2314
219.997	5624
220.063	2283
220.130	1818
220.196	771
220.263	1045
220.330	2419
220.396	5947
220.463	3229
220.529	1221
220.596	3066
220.662	2506
220.729	11315
220.795	5999
220.862	5665
220.928	10628
220.995	13578
221.061	15157
221.128	10664
221.194	2860
221.261	2031
221.327	1769
221.394	1135
221.460	1110
221.526	2509
221.593	14505
221.659	7231
221.726	10009
221.792	5959
221.859	2419
221.925	970
221.991	1281
222.058	265
222.124	1806
222.190	1454
222.257	576
222.323	1025
222.390	648
222.456	1059
222.522	823
222.589	474
222.655	253
222.721	492
222.788	688
222.854	541
222.920	420
222.986	420
223.053	-35
223.119	991
223.185	1001
223.251	312
223.318	325
223.384	409
223.450	-233
223.516	300
223.583	967
223.649	-365
223.715	848
223.781	467
223.848	631
223.914	125
223.980	277
224.046	-464
224.112	857
224.178	483
224.245	-365
224.311	142
224.377	745
224.443	210
224.509	789
224.575	43
224.641	236
224.708	89
224.774	507
224.840	844
224.906	1408
224.972	195
225.038	1029
225.104	164
225.170	1269
225.236	804
225.302	585
225.368	523
225.434	607
225.500	597
225.566	1257
225.632	894
225.699	954
225.765	1029
225.831	1873
225.897	3953
225.963	2678
226.028	1864
226.094	2113
226.160	2456
226.226	6697
226.292	14346
226.358	5242
226.424	2802
226.490	1690
226.556	1570
226.622	3301
226.688	4025
226.754	6058
226.820	21616
226.886	16966
226.951	4406
227.017	3015
227.083	1505
227.149	2552
227.215	918
227.281	1412
227.347	1385
227.412	1262
227.478	4429
227.544	4545
227.610	1632
227.676	1102
227.742	1017
227.807	1271
227.873	1257
227.939	2923
228.005	798
228.070	972
228.136	455
228.202	1161
228.268	1161
228.333	3150
228.399	1072
228.465	1684
228.531	439
228.596	1065
228.662	3463
228.728	1362
228.793	365
228.859	1359
228.925	1561
228.990	951
229.056	1728
229.122	884
229.187	1620
229.253	1250
229.319	661
229.384	2225
229.450	641
229.516	-410
229.581	1730
229.647	1718
229.712	7577
229.778	7250
229.844	3837
229.909	2798
229.975	2165
230.040	1562
230.106	1505
230.171	2784
230.237	4860
230.302	4165
230.368	2515
230.433	1835
230.499	1373
230.564	866
230.630	905
230.695	1781
230.761	943
230.826	4066
230.892	1035
230.957	850
231.023	309
231.088	1408
231.154	1341
231.219	3377
231.285	2861
231.350	804
231.415	831
231.481	1106
231.546	817
231.612	808
231.677	732
231.742	1447
231.808	295
231.873	196
231.938	3906
232.004	3218
232.069	1606
232.135	1451
232.200	439
232.265	558
232.330	672
232.396	214
232.461	583
232.526	1090
232.592	1537
232.657	5805
232.722	3123
232.788	1446
232.853	954
232.918	1182
232.983	1047
233.048	5640
233.114	4456
233.179	8637
233.244	9483
233.309	1715
233.375	1377
233.440	684
233.505	772
233.570	1600
233.635	1199
233.700	6511
233.766	7539
233.831	3056
233.896	2313
233.961	2429
234.026	1785
234.091	2115
234.156	2125
234.222	5188
234.287	20605
234.352	17220
234.417	8055
234.482	4335
234.547	2854
234.612	2851
234.677	4445
234.742	21372
234.807	11424
234.872	3824
234.937	2055
235.002	2422
235.067	3665
235.132	2076
235.197	1815
235.262	1720
235.327	1600
235.392	3567
235.457	2999
235.522	2587
235.587	1664
235.652	1434
235.717	1990
235.782	3970
235.847	11213
235.912	12277
235.977	12910
236.042	3753
236.107	4406
236.172	5121
236.236	2297
236.301	1858
236.366	6581
236.431	12189
236.496	4591
236.561	8144
236.626	32215
236.691	19130
236.755	9296
236.820	8823
236.885	5185
236.950	4446
237.015	5049
237.079	3968
237.144	9013
237.209	32803
237.274	57567
237.339	22564
237.403	8752
237.468	8441
237.533	4889
237.598	3892
237.662	3466
237.727	4145
237.792	6006
237.856	7937
237.921	4635
237.986	9096
238.050	8502
238.115	26858
238.180	20836
238.245	11615
238.309	6793
238.374	6101
238.438	4758
238.503	2530
238.568	2505
238.632	1893
238.697	2565
238.762	13732
238.826	14319
238.891	4885
238.955	3811
239.020	2635
239.085	3795
239.149	2217
239.214	1490
239.278	1638
239.343	2042
239.407	3603
239.472	27199
239.536	18838
239.601	4760
239.665	3160
239.730	3583
239.794	9624
239.859	20375
239.923	7316
239.988	3308
240.052	2882
240.117	2959
240.181	3166
240.246	2316
240.310	3619
240.374	16971
240.439	25063
240.503	6648
240.568	14099
240.632	14487
240.696	5406
240.761	2601
240.825	1826
240.890	2363
240.954	16255
241.018	27235
241.083	11628
241.147	3435
241.211	7427
241.276	13859
241.340	4818
241.404	1828
241.469	3450
241.533	2481
241.597	2437
241.661	1264
241.726	2977
241.790	1947
241.854	2236
241.919	2045
241.983	2027
242.047	760
242.111	1277
242.175	680
242.240	2960
242.304	2335
242.368	3275
242.432	2315
242.496	1478
242.561	1164
242.625	2185
242.689	2053
242.753	1792
242.817	2839
242.881	2836
242.946	2727
243.010	3312
243.074	2352
243.138	2829
243.202	3068
243.266	2755
243.330	4116
243.394	23707
243.458	61198
243.522	15469
243.586	6053
243.651	3451
243.715	3934
243.779	6086
243.843	8075
243.907	10890
243.971	6145
244.035	3911
244.099	2911
244.163	5023
244.227	7256
244.291	7200
244.355	4913
244.419	4328
244.483	3822
244.546	3107
244.610	2278
244.674	4116
244.738	3239
244.802	2424
244.866	1951
244.930	1970
244.994	1902
245.058	3584
245.122	4635
245.186	5082
245.249	4870
245.313	3711
245.377	3725
245.441	2583
245.505	3175
245.569	2921
245.632	3179
245.696	11026
245.760	5714
245.824	4423
245.888	2836
245.951	3965
246.015	3608
246.079	5437
246.143	15928
246.207	25115
246.270	8549
246.334	5404
246.398	7126
246.461	10380
246.525	4765
246.589	4937
246.653	4094
246.716	5823
246.780	6535
246.844	8576
246.907	3750
246.971	3589
247.035	4140
247.098	5178
247.162	14837
247.226	36885
247.289	13702
247.353	6126
247.416	11317
247.480	6912
247.544	4733
247.607	6756
247.671	4000
247.734	3443
247.798	5333
247.861	15068
247.925	30705
247.989	9512
248.052	4950
248.116	5787
248.179	10708
248.243	56635
248.306	49007
248.370	33651
248.433	9492
248.497	8351
248.560	11488
248.624	14740
248.687	20700
248.751	55660
248.814	23878
248.877	29047
248.941	40113
249.004	68936
249.068	51056
249.131	16937
249.194	10595
249.258	16621
249.321	9760
249.385	7314
249.448	5418
249.511	7791
249.575	12242
249.638	8212
249.701	5942
249.765	6562
249.828	8495
249.891	6031
249.955	5185
250.018	22673
250.081	25207
250.145	10513
250.208	7392
250.271	8182
250.334	6957
250.398	6433
250.461	7945
250.524	12655
250.587	66877
250.651	94860
250.714	26779
250.777	14712
250.840	8143
250.903	8910
250.967	17094
251.030	33571
251.093	15137
251.156	13169
251.219	11135
251.282	17410
251.345	93633
251.409	71223
251.472	44892
251.535	170263
251.598	95037
251.661	31990
251.724	41672
251.787	42542
251.850	106881
251.913	47695
251.976	16962
252.039	13418
252.103	12976
252.166	26844
252.229	63607
252.292	63922
252.355	138480
252.418	47509
252.481	24773
252.544	17168
252.607	18490
252.670	50852
252.733	60056
252.796	133499
252.858	71890
252.921	36467
252.984	19840
253.047	14893
253.110	11647
253.173	19894
253.236	14099
253.299	15760
253.362	12622
253.425	14144
253.488	30715
253.550	17893
253.613	21461
253.676	19071
253.739	9906
253.802	17149
253.865	13419
253.928	9623
253.990	21513
254.053	32290
254.116	22198
254.179	17680
254.242	9734
254.304	18544
254.367	17865
254.430	14240
254.493	21974
254.555	35011
254.618	17166
254.681	9900
254.743	8676
254.806	10482
254.869	26031
254.932	24630
254.994	9335
255.057	8495
255.120	4389
255.182	4647
255.245	5756
255.308	4374
255.370	3524
255.433	3098
255.496	3713
255.558	3552
255.621	4098
255.683	2867
255.746	3957
255.809	2649
255.871	2540
255.934	2793
255.996	3322
256.059	2733
256.121	6613
256.184	24777
256.246	16825
256.309	14553
256.371	5403
256.434	4685
256.496	4177
256.559	4641
256.621	8471
256.684	17492
256.746	39727
256.809	13199
256.871	6565
256.934	6147
256.996	6710
257.059	4555
257.121	3501
257.183	3308
257.246	2747
257.308	3357
257.371	11699
257.433	57842
257.495	51610
257.558	43898
257.620	17294
257.683	9441
257.745	11042
257.807	5471
257.870	4778
257.932	4039
257.994	3260
258.056	3684
258.119	5038
258.181	15169
258.243	6917
258.306	4749
258.368	17941
258.430	14555
258.492	31158
258.555	35883
258.617	8194
258.679	7117
258.741	10033
258.803	5104
258.866	3347
258.928	3192
258.990	2948
259.052	8252
259.114	11280
259.177	6228
259.239	8489
259.301	32764
259.363	15659
259.425	5079
259.487	4685
259.549	4828
259.611	3613
259.674	5000
259.736	27710
259.798	49685
259.860	74101
259.922	47615
259.984	12129
260.046	7348
260.108	5016
260.170	4579
260.232	2966
260.294	4710
260.356	3602
260.418	6774
260.480	23004
260.542	20827
260.604	38351
260.666	48951
260.728	11037
260.790	9287
260.852	6195
260.914	6812
260.976	4746
261.038	9406
261.100	46536
261.161	36681
261.223	9793
261.285	26460
261.347	33122
261.409	7706
261.471	5769
261.533	4993
261.595	4314
261.656	15871
261.718	33277
261.780	10499
261.842	6626
261.904	4308
261.966	6779
262.027	6048
262.089	14948
262.151	9757
262.213	4716
262.274	13176
262.336	9465
262.398	5254
262.460	17956
262.521	35350
262.583	9723
262.645	5235
262.706	10409
262.768	36238
262.830	11919
262.892	7964
262.953	9428
263.015	60221
263.077	123364
263.138	32546
263.200	13393
263.261	7670
263.323	5598
263.385	3975
263.446	4076
263.508	11611
263.569	7020
263.631	3523
263.693	3266
263.754	3223
263.816	1834
263.877	1182
263.939	1819
264.000	2128
264.062	4943
264.123	3752
264.185	1780
264.246	2180
264.308	6608
264.369	9965
264.431	2340
264.492	1973
264.554	3040
264.615	5301
264.677	2836
264.738	2605
264.800	2126
264.861	3110
264.922	953
264.984	1782
265.045	1945
265.107	3402
265.168	18059
265.229	13161
265.291	2726
265.352	2341
265.413	2671
265.475	734
265.536	2168
265.597	1980
265.659	1720
265.720	1632
265.781	1304
265.843	2066
265.904	5017
265.965	34346
266.026	19333
266.088	5534
266.149	4301
266.210	3145
266.271	1500
266.333	2743
266.394	3763
266.455	3112
266.516	2099
266.577	6595
266.639	11068
266.700	3103
266.761	2022
266.822	2021
266.883	2953
266.944	1818
267.005	2616
267.067	1831
267.128	1536
267.189	1575
267.250	3129
267.311	1703
267.372	517
267.433	1840
267.494	1499
267.555	1033
267.616	930
267.677	2305
267.738	1010
267.799	7411
267.860	14612
267.921	4493
267.982	3130
268.043	2419
268.104	2585
268.165	2356
268.226	2188
268.287	489
268.348	2111
268.409	2677
268.470	274
268.531	790
268.592	564
268.653	864
268.714	1676
268.775	1934
268.836	8268
268.896	10083
268.957	4294
269.018	1267
269.079	1517
269.140	1634
269.201	2719
269.262	2228
269.322	1741
269.383	2230
269.444	3942
269.505	6081
269.565	6211
269.626	3409
269.687	2495
269.748	2610
269.809	3335
269.869	6066
269.930	2211
269.991	1513
270.051	1454
270.112	2085
270.173	2334
270.234	1730
270.294	1754
270.355	3102
270.416	1280
270.476	1879
270.537	7026
270.598	15586
270.658	5837
270.719	2624
270.779	5514
270.840	4433
270.901	3325
270.961	3388
271.022	3382
271.082	7610
271.143	6874
271.203	4028
271.264	3055
271.325	5919
271.385	21810
271.446	8501
271.506	4227
271.567	4419
271.627	4131
271.688	4503
271.748	10800
271.809	53356
271.869	69834
271.930	17993
271.990	34624
272.050	59779
272.111	13732
272.171	8641
272.232	9691
272.292	44007
272.352	20479
272.413	13948
272.473	11740
272.534	11527
272.594	8423
272.654	14788
272.715	25430
272.775	9587
272.835	7790
272.896	4896
272.956	5668
273.016	11271
273.077	6731
273.137	5042
273.197	6245
273.257	25666
273.318	53016
273.378	16630
273.438	18511
273.498	40214
273.559	16506
273.619	33106
273.679	64204
273.739	20180
273.799	12353
273.860	40739
273.920	66313
273.980	14423
274.040	10015
274.100	13867
274.160	68382
274.221	62521
274.281	52049
274.341	47488
274.401	27687
274.461	11669
274.521	13134
274.581	65628
274.641	79784
274.701	24874
274.761	12939
274.821	37253
274.882	115548
274.942	78472
275.002	40140
275.062	15509
275.122	8631
275.182	7664
275.242	10983
275.302	16341
275.362	13796
275.421	10213
275.481	49313
275.541	89795
275.601	39450
275.661	20037
275.721	12936
275.781	6949
275.841	5772
275.901	6908
275.961	5947
276.021	4997
276.081	12115
276.140	31248
276.200	13068
276.260	9588
276.320	5717
276.380	7642
276.440	4957
276.499	4281
276.559	4298
276.619	8883
276.679	21998
276.738	15095
