'Start Wavelength	183.833
'End Wavelength	1047.133
'Gate Delay	5.000
'Gate Width (ms)	1.050
'Laser Output Level	0.000
'X Position	0.000
'Y Position	0.000
'Z Position	0.000
'Grid Point Number	1.000
'Shot Number	100.000
183.833	695.000
183.903	250.000
183.973	-112
184.042	698
184.112	154
184.182	275
184.252	239
184.321	-377
184.391	193
184.461	331
184.531	519
184.600	259
184.670	306
184.740	39
184.809	162
184.879	-40
184.949	815
185.018	-312
185.088	379
185.158	449
185.228	981
185.297	-15
185.367	11
185.436	-121
185.506	-376
185.576	126
185.645	-100
185.715	100
185.785	205
185.854	-64
185.924	446
185.993	-435
186.063	-52
186.133	39
186.202	-433
186.272	-305
186.341	159
186.411	-77
186.481	842
186.550	401
186.620	-5
186.689	-293
186.759	-75
186.828	199
186.898	26
186.967	-73
187.037	1041
187.106	420
187.176	401
187.246	549
187.315	93
187.385	201
187.454	814
187.524	-123
187.593	920
187.662	176
187.732	726
187.801	632
187.871	1176
187.940	337
188.010	-479
188.079	647
188.149	1404
188.218	-224
188.288	572
188.357	-157
188.426	225
188.496	793
188.565	-240
188.635	-537
188.704	210
188.773	411
188.843	781
188.912	207
188.981	245
189.051	173
189.120	-3
189.190	283
189.259	41
189.328	137
189.398	422
189.467	312
189.536	251
189.606	42
189.675	433
189.744	864
189.813	237
189.883	460
189.952	991
190.021	2578
190.091	3589
190.160	455
190.229	765
190.298	578
190.368	458
190.437	928
190.506	396
190.575	373
190.645	-12
190.714	469
190.783	524
190.852	475
190.922	941
190.991	194
191.060	530
191.129	195
191.198	233
191.268	118
191.337	905
191.406	-30
191.475	59
191.544	692
191.613	329
191.683	1061
191.752	637
191.821	364
191.890	529
191.959	110
192.028	602
192.097	120
192.166	152
192.236	152
192.305	767
192.374	424
192.443	422
192.512	-391
192.581	393
192.650	105
192.719	1099
192.788	335
192.857	624
192.926	320
192.995	827
193.064	654
193.133	1249
193.202	595
193.271	615
193.340	1494
193.409	1534
193.478	1326
193.547	2600
193.616	2202
193.685	1840
193.754	603
193.823	631
193.892	725
193.961	900
194.030	559
194.099	389
194.168	428
194.237	508
194.306	-305
194.375	423
194.444	92
194.513	886
194.582	1391
194.651	627
194.720	795
194.788	521
194.857	532
194.926	1173
194.995	796
195.064	1358
195.133	1533
195.202	2202
195.270	1338
195.339	871
195.408	694
195.477	1263
195.546	771
195.615	872
195.683	1399
195.752	1725
195.821	775
195.890	2309
195.959	2033
196.027	1915
196.096	1211
196.165	1623
196.234	864
196.303	1634
196.371	916
196.440	1486
196.509	400
196.578	258
196.646	-17
196.715	1176
196.784	167
196.853	158
196.921	787
196.990	493
197.059	561
197.127	1034
197.196	401
197.265	398
197.333	574
197.402	-62
197.471	39
197.539	682
197.608	1563
197.677	3776
197.745	1566
197.814	3489
197.883	1958
197.951	3126
198.020	2155
198.088	1216
198.157	1658
198.226	4224
198.294	334
198.363	1375
198.431	732
198.500	2810
198.569	2520
198.637	883
198.706	875
198.774	4905
198.843	3239
198.911	1143
198.980	834
199.048	766
199.117	690
199.185	379
199.254	711
199.322	506
199.391	-33
199.459	666
199.528	439
199.596	1658
199.665	115
199.733	385
199.802	875
199.870	901
199.939	553
200.007	916
200.076	340
200.144	587
200.213	758
200.281	233
200.349	1229
200.418	882
200.486	624
200.555	285
200.623	732
200.691	723
200.760	312
200.828	840
200.897	-181
200.965	737
201.033	-12
201.102	1455
201.170	730
201.238	666
201.307	1000
201.375	1090
201.443	1779
201.512	1041
201.580	324
201.648	1386
201.716	723
201.785	2367
201.853	1191
201.921	180
201.990	616
202.058	1024
202.126	869
202.194	1503
202.263	696
202.331	910
202.399	957
202.467	1831
202.536	8515
202.604	3950
202.672	992
202.740	398
202.808	516
202.877	1400
202.945	824
203.013	985
203.081	371
203.149	991
203.218	1113
203.286	1055
203.354	510
203.422	1257
203.490	574
203.558	1065
203.626	1090
203.695	1333
203.763	249
203.831	425
203.899	327
203.967	607
204.035	618
204.103	727
204.171	716
204.239	1239
204.307	-51
204.375	1148
204.443	1029
204.512	853
204.580	218
204.648	1213
204.716	403
204.784	788
204.852	714
204.920	764
204.988	224
205.056	1067
205.124	648
205.192	569
205.260	305
205.328	929
205.396	555
205.464	702
205.532	714
205.600	452
205.667	440
205.735	4599
205.803	5609
205.871	1536
205.939	737
206.007	1718
206.075	1053
206.143	1160
206.211	1403
206.279	1106
206.347	412
206.414	1193
206.482	931
206.550	1063
206.618	1129
206.686	1087
206.754	1283
206.822	575
206.889	-259
206.957	1039
207.025	64
207.093	993
207.161	919
207.229	973
207.296	1076
207.364	932
207.432	783
207.500	649
207.567	774
207.635	647
207.703	1282
207.771	741
207.839	959
207.906	1292
207.974	1112
208.042	1337
208.109	1161
208.177	1804
208.245	1527
208.313	2298
208.380	4027
208.448	1790
208.516	934
208.583	1578
208.651	1479
208.719	1463
208.786	706
208.854	1083
208.922	1675
208.989	1705
209.057	1209
209.125	732
209.192	1218
209.260	1943
209.327	3303
209.395	1176
209.463	284
209.530	1432
209.598	756
209.665	1484
209.733	967
209.801	1199
209.868	884
209.936	2145
210.003	1569
210.071	1399
210.138	1576
210.206	2843
210.273	2757
210.341	1490
210.408	1503
210.476	1165
210.543	1625
210.611	2611
210.678	1356
210.746	674
210.813	2126
210.881	2252
210.948	1012
211.016	2133
211.083	1209
211.151	1936
211.218	2742
211.285	2057
211.353	1101
211.420	1584
211.488	1733
211.555	2059
211.622	2072
211.690	1622
211.757	1591
211.825	1122
211.892	1401
211.959	1476
212.027	1430
212.094	1410
212.161	1328
212.229	3937
212.296	7884
212.363	21440
212.431	7037
212.498	2657
212.565	1512
212.633	2028
212.700	1844
212.767	2134
212.835	1848
212.902	1776
212.969	1233
213.036	1736
213.104	1869
213.171	2959
213.238	1295
213.305	1912
213.373	1034
213.440	1581
213.507	1659
213.574	2247
213.641	805
213.709	1839
213.776	3463
213.843	4094
213.910	2741
213.977	2357
214.045	1101
214.112	1917
214.179	1580
214.246	2360
214.313	1065
214.380	2058
214.447	2590
214.515	1932
214.582	1706
214.649	2322
214.716	1540
214.783	1915
214.850	2756
214.917	2778
214.984	3002
215.051	3695
215.118	3401
215.185	2572
215.253	2359
215.320	1645
215.387	1603
215.454	1026
215.521	1648
215.588	1948
215.655	1482
215.722	3265
215.789	3011
215.856	3338
215.923	3111
215.990	2739
216.057	2041
216.124	2592
216.191	2179
216.258	2113
216.325	1793
216.391	3898
216.458	2460
216.525	3115
216.592	7222
216.659	7168
216.726	2939
216.793	3960
216.860	2784
216.927	2731
216.994	2350
217.061	3985
217.127	2927
217.194	3849
217.261	6036
217.328	5818
217.395	3769
217.462	3172
217.529	1832
217.595	1791
217.662	2617
217.729	6352
217.796	4256
217.863	2707
217.929	1596
217.996	1240
218.063	1379
218.130	598
218.196	743
218.263	1704
218.330	1829
218.397	1984
218.463	1245
218.530	2549
218.597	6297
218.664	6257
218.730	2036
218.797	1779
218.864	1285
218.930	1528
218.997	1513
219.064	2862
219.131	4486
219.197	2474
219.264	1416
219.331	1614
219.397	747
219.464	1308
219.530	4135
219.597	2284
219.664	720
219.730	1765
219.797	618
219.864	841
219.930	3622
219.997	8516
220.063	3576
220.130	2086
220.196	1724
220.263	3732
220.330	4989
220.396	9888
220.463	4803
220.529	3071
220.596	3143
220.662	3165
220.729	11295
220.795	7850
220.862	9854
220.928	17452
220.995	15612
221.061	14577
221.128	11061
221.194	3766
221.261	2905
221.327	2693
221.394	1712
221.460	1684
221.526	3226
221.593	14082
221.659	7753
221.726	8860
221.792	7146
221.859	3736
221.925	1960
221.991	2350
222.058	1796
222.124	2860
222.190	2303
222.257	1269
222.323	790
222.390	1187
222.456	2009
222.522	923
222.589	1008
222.655	992
222.721	905
222.788	1472
222.854	563
222.920	1029
222.986	1500
223.053	1550
223.119	954
223.185	774
223.251	893
223.318	1363
223.384	753
223.450	1112
223.516	797
223.583	1862
223.649	1062
223.715	925
223.781	1181
223.848	324
223.914	449
223.980	1491
224.046	826
224.112	1111
224.178	929
224.245	562
224.311	1008
224.377	1098
224.443	449
224.509	1961
224.575	716
224.641	1624
224.708	528
224.774	805
224.840	1866
224.906	1533
224.972	1153
225.038	1799
225.104	1561
225.170	1090
225.236	488
225.302	1180
225.368	841
225.434	944
225.500	1789
225.566	1630
225.632	1243
225.699	2820
225.765	2270
225.831	2527
225.897	5830
225.963	3627
226.028	3197
226.094	3707
226.160	4962
226.226	13449
226.292	24683
226.358	10865
226.424	5039
226.490	3939
226.556	2967
226.622	5389
226.688	7892
226.754	11973
226.820	36254
226.886	28808
226.951	8700
227.017	5227
227.083	4840
227.149	4749
227.215	3665
227.281	3084
227.347	2733
227.412	2681
227.478	5285
227.544	7385
227.610	3978
227.676	2412
227.742	2105
227.807	2051
227.873	2207
227.939	5044
228.005	2381
228.070	1740
228.136	1880
228.202	1678
228.268	2186
228.333	5480
228.399	3112
228.465	1499
228.531	1557
228.596	3007
228.662	6033
228.728	3118
228.793	1995
228.859	2034
228.925	2528
228.990	3128
229.056	3328
229.122	2177
229.187	3213
229.253	1707
229.319	2380
229.384	3997
229.450	1141
229.516	167
229.581	2089
229.647	3397
229.712	10441
229.778	10290
229.844	5957
229.909	5841
229.975	4816
230.040	2887
230.106	3659
230.171	3953
230.237	7085
230.302	6639
230.368	2895
230.433	2851
230.499	2157
230.564	2139
230.630	1746
230.695	1669
230.761	1658
230.826	5828
230.892	2545
230.957	1127
231.023	1159
231.088	1486
231.154	1971
231.219	5895
231.285	4873
231.350	2094
231.415	1901
231.481	1110
231.546	2161
231.612	1451
231.677	1147
231.742	1774
231.808	1049
231.873	1370
231.938	5869
232.004	6542
232.069	2168
232.135	2312
232.200	1264
232.265	2330
232.330	973
232.396	1809
232.461	1264
232.526	1903
232.592	1897
232.657	6624
232.722	4458
232.788	2265
232.853	1811
232.918	2039
232.983	2108
233.048	6258
233.114	4496
233.179	8359
233.244	10083
233.309	2573
233.375	2636
233.440	1739
233.505	1641
233.570	1935
233.635	2357
233.700	6990
233.766	8456
233.831	3925
233.896	4121
233.961	4804
234.026	4187
234.091	3624
234.156	2718
234.222	6050
234.287	20126
234.352	18789
234.417	9572
234.482	5949
234.547	4764
234.612	3735
234.677	6508
234.742	22731
234.807	12034
234.872	5282
234.937	4373
235.002	4377
235.067	3629
235.132	3413
235.197	2928
235.262	2986
235.327	3426
235.392	5392
235.457	5191
235.522	3575
235.587	3083
235.652	2461
235.717	3445
235.782	5137
235.847	11549
235.912	14271
235.977	14082
236.042	4699
236.107	5712
236.172	5785
236.236	3544
236.301	4368
236.366	7637
236.431	13447
236.496	5436
236.561	12008
236.626	50562
236.691	31413
236.755	13472
236.820	12132
236.885	8146
236.950	6451
237.015	7202
237.079	9158
237.144	15487
237.209	50040
237.274	84411
237.339	34506
237.403	14790
237.468	12182
237.533	7650
237.598	5595
237.662	4940
237.727	7042
237.792	11043
237.856	11015
237.921	6273
237.986	10189
238.050	10670
238.115	28313
238.180	22217
238.245	13340
238.309	9014
238.374	7459
238.438	6141
238.503	3434
238.568	3115
238.632	3934
238.697	3790
238.762	13177
238.826	14973
238.891	7217
238.955	7157
239.020	4261
239.085	5111
239.149	3728
239.214	3435
239.278	3171
239.343	2916
239.407	6126
239.472	27714
239.536	18008
239.601	5471
239.665	3688
239.730	5030
239.794	10540
239.859	19942
239.923	7782
239.988	4599
240.052	3423
240.117	3839
240.181	4432
240.246	3598
240.310	5429
240.374	17581
240.439	24230
240.503	7105
240.568	13689
240.632	14617
240.696	6142
240.761	3519
240.825	3315
240.890	3888
240.954	16048
241.018	27676
241.083	12422
241.147	4339
241.211	8451
241.276	15271
241.340	6206
241.404	4778
241.469	4059
241.533	4066
241.597	3479
241.661	3534
241.726	3620
241.790	3502
241.854	3856
241.919	2859
241.983	2782
242.047	3308
242.111	3727
242.175	2621
242.240	3772
242.304	4131
242.368	5303
242.432	3520
242.496	3236
242.561	2268
242.625	4049
242.689	2924
242.753	3589
242.817	3798
242.881	4270
242.946	5075
243.010	5155
243.074	5174
243.138	4628
243.202	3768
243.266	4696
243.330	5832
243.394	25902
243.458	64829
243.522	19718
243.586	9708
243.651	5052
243.715	6633
243.779	9756
243.843	11409
243.907	19195
243.971	11960
244.035	7013
244.099	3465
244.163	9875
244.227	12044
244.291	11466
244.355	7705
244.419	5471
244.483	5241
244.546	4195
244.610	4794
244.674	7092
244.738	7359
244.802	4322
244.866	4076
244.930	3400
244.994	3907
245.058	5839
245.122	7574
245.186	8090
245.249	8204
245.313	7198
245.377	4963
245.441	4582
245.505	5573
245.569	5177
245.632	6652
245.696	17491
245.760	8893
245.824	6873
245.888	4158
245.951	5708
246.015	5322
246.079	8505
246.143	23939
246.207	33970
246.270	13307
246.334	9223
246.398	10286
246.461	17643
246.525	9139
246.589	8571
246.653	8214
246.716	10526
246.780	10734
246.844	15302
246.907	7006
246.971	7454
247.035	6951
247.098	7394
247.162	22961
247.226	48085
247.289	20490
247.353	10117
247.416	19034
247.480	11185
247.544	9138
247.607	12256
247.671	7161
247.734	7350
247.798	8237
247.861	21804
247.925	40963
247.989	14927
248.052	7780
248.116	9809
248.179	15704
248.243	77770
248.306	68831
248.370	43186
248.433	15880
248.497	13366
248.560	20156
248.624	25748
248.687	32929
248.751	76058
248.814	36556
248.877	41065
248.941	55264
249.004	89866
249.068	68255
249.131	26160
249.194	16624
249.258	22505
249.321	15352
249.385	11642
249.448	9299
249.511	12638
249.575	23780
249.638	18494
249.701	18869
249.765	12948
249.828	12333
249.891	10129
249.955	8897
250.018	30720
250.081	36098
250.145	16982
250.208	12123
250.271	13556
250.334	10645
250.398	9964
250.461	12875
250.524	18196
250.587	72361
250.651	100570
250.714	36197
250.777	20570
250.840	12923
250.903	12752
250.967	20369
251.030	42575
251.093	21114
251.156	20958
251.219	17620
251.282	22790
251.345	97046
251.409	78469
251.472	52986
251.535	176255
251.598	106242
251.661	41094
251.724	54776
251.787	51035
251.850	109326
251.913	54465
251.976	20784
252.039	18275
252.103	18682
252.166	39287
252.229	84506
252.292	80837
252.355	148716
252.418	58930
252.481	31735
252.544	23101
252.607	24174
252.670	63444
252.733	69757
252.796	141949
252.858	91579
252.921	52735
252.984	29818
253.047	22816
253.110	17658
253.173	25301
253.236	19767
253.299	24235
253.362	21652
253.425	21857
253.488	44770
253.550	28297
253.613	36226
253.676	34365
253.739	16418
253.802	23400
253.865	19951
253.928	15157
253.990	30941
254.053	44861
254.116	36771
254.179	29123
254.242	15580
254.304	31666
254.367	31540
254.430	27313
254.493	31278
254.555	51497
254.618	29154
254.681	17655
254.743	14678
254.806	15254
254.869	34508
254.932	32289
254.994	14720
255.057	15045
255.120	8078
255.182	8444
255.245	10177
255.308	6913
255.370	5306
255.433	6246
255.496	5673
255.558	6566
255.621	6350
255.683	5519
255.746	5720
255.809	5205
255.871	4931
255.934	5763
255.996	5148
256.059	6135
256.121	9528
256.184	27222
256.246	18854
256.309	15955
256.371	7913
256.434	5603
256.496	5168
256.559	5624
256.621	11705
256.684	27569
256.746	67089
256.809	23393
256.871	11283
256.934	11040
256.996	12061
257.059	8570
257.121	6633
257.183	6293
257.246	5717
257.308	6341
257.371	17698
257.433	91194
257.495	82432
257.558	51868
257.620	28054
257.683	13703
257.745	14146
257.807	7799
257.870	7050
257.932	6141
257.994	6697
258.056	6103
258.119	9182
258.181	21710
258.243	10457
258.306	7365
258.368	27613
258.430	22551
258.492	32700
258.555	36402
258.617	9416
258.679	9476
258.741	18308
258.803	8713
258.866	6010
258.928	6006
258.990	5591
259.052	9565
259.114	12881
259.177	8461
259.239	10580
259.301	32459
259.363	17339
259.425	8039
259.487	6922
259.549	6873
259.611	5919
259.674	7721
259.736	30412
259.798	50444
259.860	77332
259.922	56477
259.984	15608
260.046	8826
260.108	7301
260.170	6719
260.232	5249
260.294	6566
260.356	6849
260.418	10637
260.480	25552
260.542	23192
260.604	47726
260.666	55812
260.728	14091
260.790	11777
260.852	9224
260.914	8752
260.976	7899
261.038	15963
261.100	50768
261.161	39079
261.223	12744
261.285	28013
261.347	35053
261.409	10698
261.471	8047
261.533	5709
261.595	5994
261.656	18149
261.718	41233
261.780	16744
261.842	10355
261.904	8301
261.966	9516
262.027	8682
262.089	17858
262.151	13113
262.213	7205
262.274	22889
262.336	16039
262.398	8035
262.460	19515
262.521	38496
262.583	11308
262.645	7749
262.706	13057
262.768	38556
262.830	14355
262.892	9726
262.953	11237
263.015	61754
263.077	125999
263.138	37788
263.200	21145
263.261	11566
263.323	7657
263.385	6433
263.446	7138
263.508	20945
263.569	12014
263.631	5779
263.693	3933
263.754	4894
263.816	2867
263.877	3533
263.939	1902
264.000	5730
264.062	11950
264.123	8074
264.185	3567
264.246	3481
264.308	13256
264.369	22339
264.431	6564
264.492	4705
264.554	7564
264.615	14859
264.677	7030
264.738	5000
264.800	3747
264.861	4082
264.922	2974
264.984	2857
265.045	3203
265.107	5754
265.168	34227
265.229	25296
265.291	6253
265.352	4961
265.413	3440
265.475	2456
265.536	4936
265.597	4731
265.659	3181
265.720	3100
265.781	3204
265.843	2941
265.904	8790
265.965	60435
266.026	36142
266.088	11684
266.149	10891
266.210	6264
266.271	4101
266.333	5418
266.394	6336
266.455	3780
266.516	2989
266.577	12115
266.639	19890
266.700	6032
266.761	3677
266.822	3937
266.883	6206
266.944	3617
267.005	3986
267.067	3546
267.128	4016
267.189	3280
267.250	5395
267.311	4465
267.372	2708
267.433	4266
267.494	2701
267.555	3156
267.616	1804
267.677	2939
267.738	2543
267.799	12831
267.860	26890
267.921	9307
267.982	7833
268.043	4635
268.104	6131
268.165	2675
268.226	3481
268.287	3854
268.348	4526
268.409	5900
268.470	2186
268.531	2472
268.592	1964
268.653	2071
268.714	3955
268.775	4753
268.836	16823
268.896	20306
268.957	8361
269.018	3072
269.079	3398
269.140	3669
269.201	4196
269.262	3226
269.322	3595
269.383	5337
269.444	7221
269.505	11418
269.565	13693
269.626	7855
269.687	5714
269.748	5195
269.809	8277
269.869	12230
269.930	4377
269.991	3121
270.051	2770
270.112	3861
270.173	3025
270.234	3563
270.294	3511
270.355	5659
270.416	2883
270.476	5306
270.537	13631
270.598	27928
270.658	10503
270.719	6385
270.779	9696
270.840	7805
270.901	5165
270.961	7214
271.022	6897
271.082	13380
271.143	11979
271.203	6206
271.264	5277
271.325	7980
271.385	26893
271.446	12316
271.506	6299
271.567	7511
271.627	5215
271.688	8084
271.748	19389
271.809	74143
271.869	93781
271.930	26967
271.990	43864
272.050	76300
272.111	19507
272.171	11620
272.232	14983
272.292	59966
272.352	27901
272.413	23081
272.473	19816
272.534	20553
272.594	15820
272.654	18743
272.715	33782
272.775	15903
272.835	13088
272.896	7546
272.956	7626
273.016	16825
273.077	12581
273.137	8330
273.197	10524
273.257	40506
273.318	77314
273.378	29419
273.438	30769
273.498	67096
273.559	26050
273.619	45397
273.679	86584
273.739	30262
273.799	17707
273.860	47590
273.920	76504
273.980	20455
274.040	14984
274.100	20039
274.160	99308
274.221	81966
274.281	66996
274.341	70995
274.401	44832
274.461	18656
274.521	18778
274.581	73579
274.641	92437
274.701	33231
274.761	16452
274.821	42504
274.882	131464
274.942	99616
275.002	53853
275.062	22610
275.122	12871
275.182	11420
275.242	15547
275.302	25116
275.362	24033
275.421	16491
275.481	54660
275.541	112776
