'Start Wavelength	183.833
'End Wavelength	1047.133
'Gate Delay	5.000
'Gate Width (ms)	1.050
'Laser Output Level	0.000
'X Position	0.000
'Y Position	0.000
'Z Position	0.000
'Grid Point Number	1.000
'Shot Number	100.000
183.833	-135.000
183.903	-276.000
183.973	-135
184.042	-281
184.112	125
184.182	506
184.252	-81
184.321	331
184.391	242
184.461	-79
184.531	372
184.600	437
184.670	174
184.740	-497
184.809	287
184.879	-393
184.949	-87
185.018	50
185.088	190
185.158	185
185.228	-5
185.297	105
185.367	-285
185.436	-348
185.506	-274
185.576	227
185.645	50
185.715	-390
185.785	559
185.854	-321
185.924	379
185.993	127
186.063	-22
186.133	-172
186.202	-256
186.272	-492
186.341	331
186.411	-1270
186.481	535
186.550	-66
186.620	-452
186.689	-151
186.759	-502
186.828	-272
186.898	-541
186.967	68
187.037	516
187.106	589
187.176	471
187.246	-183
187.315	-399
187.385	190
187.454	-48
187.524	-137
187.593	2
187.662	-658
187.732	174
187.801	-233
187.871	642
187.940	697
188.010	-560
188.079	312
188.149	-311
188.218	-105
188.288	-17
188.357	-631
188.426	397
188.496	103
188.565	451
188.635	117
188.704	336
188.773	-96
188.843	1043
188.912	-300
188.981	-252
189.051	-249
189.120	715
189.190	-171
189.259	-102
189.328	536
189.398	137
189.467	-360
189.536	834
189.606	-49
189.675	199
189.744	-294
189.813	84
189.883	-59
189.952	-35
190.021	387
190.091	1943
190.160	-331
190.229	-258
190.298	396
190.368	-429
190.437	-785
190.506	139
190.575	463
190.645	-260
190.714	108
190.783	516
190.852	-704
190.922	739
190.991	29
191.060	663
191.129	-7
191.198	100
191.268	33
191.337	-126
191.406	-315
191.475	498
191.544	86
191.613	47
191.683	25
191.752	78
191.821	-396
191.890	669
191.959	488
192.028	46
192.097	-145
192.166	264
192.236	122
192.305	-498
192.374	81
192.443	130
192.512	-1088
192.581	-524
192.650	-385
192.719	126
192.788	-245
192.857	808
192.926	18
192.995	-198
193.064	275
193.133	823
193.202	0
193.271	261
193.340	58
193.409	843
193.478	229
193.547	-155
193.616	253
193.685	479
193.754	-13
193.823	36
193.892	504
193.961	451
194.030	-163
194.099	164
194.168	410
194.237	415
194.306	-100
194.375	280
194.444	-159
194.513	170
194.582	360
194.651	936
194.720	-329
194.788	-317
194.857	606
194.926	-48
194.995	439
195.064	220
195.133	-211
195.202	577
195.270	343
195.339	896
195.408	-402
195.477	865
195.546	-584
195.615	-289
195.683	-62
195.752	449
195.821	-247
195.890	247
195.959	-563
196.027	511
196.096	49
196.165	454
196.234	214
196.303	-178
196.371	177
196.440	502
196.509	-231
196.578	89
196.646	16
196.715	-41
196.784	-76
196.853	292
196.921	490
196.990	-763
197.059	-69
197.127	6
197.196	-1110
197.265	-116
197.333	-641
197.402	78
197.471	-947
197.539	-141
197.608	71
197.677	542
197.745	160
197.814	1268
197.883	386
197.951	873
198.020	978
198.088	-109
198.157	303
198.226	2169
198.294	426
198.363	-201
198.431	-230
198.500	526
198.569	682
198.637	1079
198.706	720
198.774	1814
198.843	1528
198.911	287
198.980	-266
199.048	-583
199.117	170
199.185	94
199.254	-630
199.322	-266
199.391	-255
199.459	114
199.528	-235
199.596	-510
199.665	-945
199.733	276
199.802	-526
199.870	99
199.939	-302
200.007	877
200.076	-260
200.144	516
200.213	-729
200.281	239
200.349	-480
200.418	158
200.486	61
200.555	104
200.623	-534
200.691	29
200.760	-434
200.828	77
200.897	-424
200.965	-317
201.033	-904
201.102	-34
201.170	-12
201.238	-670
201.307	-105
201.375	305
201.443	-1055
201.512	-86
201.580	-276
201.648	475
201.716	309
201.785	696
201.853	-111
201.921	-86
201.990	-367
202.058	229
202.126	-607
202.194	-183
202.263	-403
202.331	-356
202.399	582
202.467	124
202.536	1350
202.604	523
202.672	-86
202.740	-33
202.808	36
202.877	274
202.945	-248
203.013	416
203.081	-430
203.149	-465
203.218	-518
203.286	345
203.354	-529
203.422	-266
203.490	-310
203.558	-611
203.626	-154
203.695	-409
203.763	-491
203.831	628
203.899	-438
203.967	-960
204.035	-225
204.103	-648
204.171	485
204.239	-88
204.307	-162
204.375	137
204.443	-1076
204.512	-105
204.580	-137
204.648	388
204.716	-521
204.784	582
204.852	-91
204.920	77
204.988	-16
205.056	171
205.124	-297
205.192	-72
205.260	-21
205.328	-119
205.396	-100
205.464	90
205.532	84
205.600	51
205.667	-122
205.735	1548
205.803	1533
205.871	-53
205.939	-129
206.007	156
206.075	-201
206.143	-319
206.211	-721
206.279	-382
206.347	398
206.414	-357
206.482	-365
206.550	321
206.618	-165
206.686	227
206.754	-101
206.822	-179
206.889	-419
206.957	544
207.025	118
207.093	82
207.161	-295
207.229	-71
207.296	-103
207.364	-26
207.432	-370
207.500	-184
207.567	-521
207.635	-463
207.703	-430
207.771	104
207.839	-536
207.906	31
207.974	308
208.042	-66
208.109	-333
208.177	63
208.245	-95
208.313	447
208.380	179
208.448	282
208.516	-328
208.583	682
208.651	446
208.719	78
208.786	-372
208.854	432
208.922	510
208.989	498
209.057	-406
209.125	312
209.192	151
209.260	-538
209.327	384
209.395	310
209.463	279
209.530	-299
209.598	-127
209.665	-32
209.733	32
209.801	-201
209.868	27
209.936	656
210.003	-292
210.071	-496
210.138	231
210.206	553
210.273	-75
210.341	-405
210.408	715
210.476	-9
210.543	-89
210.611	-337
210.678	92
210.746	-135
210.813	463
210.881	454
210.948	0
211.016	822
211.083	-242
211.151	372
211.218	-150
211.285	417
211.353	-320
211.420	475
211.488	-74
211.555	-216
211.622	-98
211.690	2
211.757	144
211.825	-313
211.892	-157
211.959	9
212.027	-215
212.094	745
212.161	-36
212.229	1503
212.296	3083
212.363	9691
212.431	2760
212.498	844
212.565	549
212.633	89
212.700	-133
212.767	32
212.835	277
212.902	-452
212.969	476
213.036	527
213.104	-122
213.171	493
213.238	353
213.305	-72
213.373	-416
213.440	476
213.507	-407
213.574	293
213.641	-274
213.709	-39
213.776	211
213.843	88
213.910	748
213.977	336
214.045	609
214.112	56
214.179	-424
214.246	-462
214.313	-187
214.380	-242
214.447	-143
214.515	353
214.582	313
214.649	516
214.716	169
214.783	501
214.850	116
214.917	686
214.984	618
215.051	584
215.118	767
215.185	385
215.253	39
215.320	643
215.387	-4
215.454	-188
215.521	-542
215.588	217
215.655	-287
215.722	558
215.789	234
215.856	-309
215.923	-612
215.990	-195
216.057	-108
216.124	192
216.191	339
216.258	-263
216.325	-107
216.391	1202
216.458	140
216.525	81
216.592	1738
216.659	1318
216.726	442
216.793	1571
216.860	216
216.927	626
216.994	-332
217.061	382
217.127	40
217.194	651
217.261	716
217.328	2821
217.395	1679
217.462	440
217.529	-88
217.595	-673
217.662	95
217.729	2036
217.796	1246
217.863	318
217.929	80
217.996	-217
218.063	483
218.130	117
218.196	-16
218.263	296
218.330	-579
218.397	519
218.463	-124
218.530	961
218.597	1037
218.664	1524
218.730	-685
218.797	-354
218.864	-473
218.930	-543
218.997	-102
219.064	577
219.131	1084
219.197	605
219.264	-446
219.331	358
219.397	-571
219.464	482
219.530	388
219.597	890
219.664	-1058
219.730	-60
219.797	-301
219.864	254
219.930	483
219.997	2241
220.063	991
220.130	919
220.196	83
220.263	208
220.330	1876
220.396	3313
220.463	807
220.529	437
220.596	396
220.662	1508
220.729	4826
220.795	2137
220.862	2621
220.928	6711
220.995	7381
221.061	6800
221.128	4699
221.194	1275
221.261	158
221.327	-423
221.394	-276
221.460	739
221.526	248
221.593	6577
221.659	3161
221.726	4164
221.792	2948
221.859	1115
221.925	48
221.991	216
222.058	-1114
222.124	732
222.190	520
222.257	-126
222.323	-546
222.390	-494
222.456	-221
222.522	-6
222.589	-227
222.655	-553
222.721	-183
222.788	-263
222.854	-86
222.920	176
222.986	-736
223.053	236
223.119	195
223.185	-613
223.251	-528
223.318	-381
223.384	-187
223.450	-165
223.516	-888
223.583	-295
223.649	-285
223.715	331
223.781	-665
223.848	-561
223.914	-366
223.980	-161
224.046	-960
224.112	531
224.178	-512
224.245	-79
224.311	-712
224.377	336
224.443	-392
224.509	-351
224.575	-620
224.641	-236
224.708	-441
224.774	-555
224.840	617
224.906	-508
224.972	8
225.038	-149
225.104	-155
225.170	-64
225.236	-129
225.302	55
225.368	222
225.434	-263
225.500	-240
225.566	172
225.632	-332
225.699	710
225.765	700
225.831	741
225.897	462
225.963	1444
226.028	1287
226.094	833
226.160	679
226.226	4362
226.292	8112
226.358	3012
226.424	1114
226.490	497
226.556	968
226.622	937
226.688	1635
226.754	2533
226.820	12823
226.886	10161
226.951	1954
227.017	1271
227.083	850
227.149	1081
227.215	643
227.281	-192
227.347	-597
227.412	481
227.478	1365
227.544	1788
227.610	592
227.676	94
227.742	416
227.807	38
227.873	291
227.939	764
228.005	513
228.070	1146
228.136	-273
228.202	152
228.268	301
228.333	581
228.399	346
228.465	-629
228.531	-254
228.596	-98
228.662	749
228.728	295
228.793	193
228.859	-83
228.925	-150
228.990	260
229.056	304
229.122	-398
229.187	-217
229.253	-325
229.319	-876
229.384	1013
229.450	-370
229.516	-156
229.581	800
229.647	176
229.712	1958
229.778	2121
229.844	755
229.909	823
229.975	464
230.040	483
230.106	-285
230.171	-34
230.237	1764
230.302	797
230.368	-140
230.433	168
230.499	542
230.564	139
230.630	254
230.695	272
230.761	-317
230.826	379
230.892	-122
230.957	315
231.023	-74
231.088	-503
231.154	157
231.219	-118
231.285	894
231.350	174
231.415	352
231.481	447
231.546	291
231.612	-401
231.677	-296
231.742	385
231.808	-59
231.873	-871
231.938	1100
232.004	496
232.069	59
232.135	409
232.200	321
232.265	466
232.330	-5
232.396	605
232.461	-838
232.526	50
232.592	569
232.657	1643
232.722	630
232.788	1092
232.853	-135
232.918	1170
232.983	-528
233.048	1220
233.114	564
233.179	2145
233.244	2651
233.309	494
233.375	970
233.440	570
233.505	-377
233.570	-286
233.635	108
233.700	1586
233.766	2339
233.831	405
233.896	155
233.961	596
234.026	435
234.091	322
234.156	-241
234.222	1982
234.287	6941
234.352	5431
234.417	2199
234.482	1472
234.547	755
234.612	1462
234.677	1600
234.742	7023
234.807	3884
234.872	1606
234.937	678
235.002	1187
235.067	717
235.132	638
235.197	230
235.262	-402
235.327	306
235.392	1420
235.457	1005
235.522	366
235.587	460
235.652	-128
235.717	676
235.782	1333
235.847	3406
235.912	3754
235.977	3503
236.042	1376
236.107	1243
236.172	1961
236.236	587
236.301	367
236.366	1676
236.431	3482
236.496	1456
236.561	3875
236.626	18192
236.691	10162
236.755	3159
236.820	3761
236.885	1424
236.950	1631
237.015	1545
237.079	2426
237.144	4811
237.209	18804
237.274	29795
237.339	9877
237.403	3649
237.468	2235
237.533	1540
237.598	1615
237.662	706
237.727	1547
237.792	3552
237.856	2748
237.921	1452
237.986	3032
238.050	3085
238.115	9209
238.180	7595
238.245	3312
238.309	2461
238.374	1405
238.438	1587
238.503	489
238.568	1231
238.632	1242
238.697	-150
238.762	4293
238.826	4626
238.891	2129
238.955	2136
239.020	877
239.085	1630
239.149	828
239.214	476
239.278	383
239.343	658
239.407	1823
239.472	9858
239.536	6390
239.601	2094
239.665	746
239.730	1127
239.794	4115
239.859	6576
239.923	2497
239.988	239
240.052	332
240.117	574
240.181	625
240.246	681
240.310	554
240.374	5588
240.439	8618
240.503	2656
240.568	4487
240.632	3814
240.696	1504
240.761	613
240.825	-142
240.890	1392
240.954	6449
241.018	9014
241.083	3501
241.147	162
241.211	2168
241.276	4195
241.340	1515
241.404	907
241.469	1417
241.533	870
241.597	163
241.661	816
241.726	523
241.790	-194
241.854	812
241.919	183
241.983	950
242.047	-123
242.111	-239
242.175	133
242.240	713
242.304	527
242.368	1039
242.432	957
242.496	1046
242.561	332
242.625	839
242.689	-439
242.753	608
242.817	364
242.881	1359
242.946	912
243.010	1583
243.074	46
243.138	376
243.202	476
243.266	1145
243.330	1339
243.394	9747
243.458	26190
243.522	6151
243.586	2508
243.651	1415
243.715	1647
243.779	2853
243.843	3267
243.907	3654
243.971	1844
244.035	1519
244.099	902
244.163	1557
244.227	1640
244.291	2705
244.355	1385
244.419	492
244.483	782
244.546	1103
244.610	602
244.674	1402
244.738	478
244.802	772
244.866	928
244.930	-267
244.994	48
245.058	940
245.122	2713
245.186	364
245.249	1633
245.313	1270
245.377	1346
245.441	41
245.505	1021
245.569	1176
245.632	978
245.696	4582
245.760	683
245.824	991
245.888	1166
245.951	2031
246.015	1545
246.079	1787
246.143	6366
246.207	9595
246.270	3017
246.334	2358
246.398	2003
246.461	3523
246.525	1813
246.589	1657
246.653	1062
246.716	2708
246.780	1699
246.844	2775
246.907	1246
246.971	1507
247.035	992
247.098	1808
247.162	5650
247.226	13880
247.289	5711
247.353	2307
247.416	4055
247.480	2514
247.544	1794
247.607	2341
247.671	807
247.734	1533
247.798	1789
247.861	5795
247.925	11924
247.989	3383
248.052	1058
248.116	2804
248.179	4637
248.243	22052
248.306	17955
248.370	13091
248.433	3678
248.497	4431
248.560	4368
248.624	5881
248.687	8954
248.751	22412
248.814	9998
248.877	11678
248.941	16480
249.004	27405
249.068	19774
249.131	7160
249.194	3787
249.258	6315
249.321	4432
249.385	3599
249.448	2370
249.511	3245
249.575	4691
249.638	3633
249.701	2682
249.765	2993
249.828	3271
249.891	3377
249.955	2644
250.018	9782
250.081	11398
250.145	4443
250.208	2828
250.271	4365
250.334	3181
250.398	3190
250.461	3985
250.524	6369
250.587	31931
250.651	45936
250.714	11773
250.777	7885
250.840	4464
250.903	4702
250.967	7583
251.030	14002
251.093	6130
251.156	6015
251.219	5507
251.282	8402
251.345	45648
251.409	32472
251.472	20088
251.535	81942
251.598	42771
251.661	14646
251.724	17405
251.787	19885
251.850	51357
251.913	21747
251.976	8920
252.039	5880
252.103	5357
252.166	12309
252.229	25343
252.292	28428
252.355	63935
252.418	20091
252.481	10761
252.544	7709
252.607	8180
252.670	21407
252.733	27826
252.796	62564
252.858	30187
252.921	14641
252.984	8590
253.047	5603
253.110	4894
253.173	7959
253.236	5744
253.299	6387
253.362	6042
253.425	6018
253.488	13591
253.550	7870
253.613	7342
253.676	7640
253.739	3581
253.802	5597
253.865	4632
253.928	4329
253.990	9040
254.053	12907
254.116	9014
254.179	6615
254.242	4615
254.304	7322
254.367	7121
254.430	6103
254.493	9060
254.555	13924
254.618	6596
254.681	3650
254.743	2788
254.806	3485
254.869	10151
254.932	8549
254.994	3715
255.057	2474
255.120	2088
255.182	1676
255.245	2399
255.308	1307
255.370	930
255.433	1194
255.496	1058
255.558	1456
255.621	1123
255.683	685
255.746	2139
255.809	749
255.871	1383
255.934	880
255.996	630
256.059	993
256.121	1863
256.184	7504
256.246	4418
256.309	3728
256.371	1885
256.434	1434
256.496	1090
256.559	2168
256.621	2394
256.684	9882
256.746	24103
256.809	6568
256.871	2698
256.934	1967
256.996	1916
257.059	2332
257.121	1778
257.183	1291
257.246	557
257.308	1410
257.371	5990
257.433	34591
257.495	24668
257.558	10609
257.620	6144
257.683	3110
257.745	2998
257.807	1269
257.870	1981
257.932	-256
257.994	441
258.056	717
258.119	1582
258.181	4705
258.243	1873
258.306	1729
258.368	6649
258.430	5463
258.492	10990
258.555	12514
258.617	2396
258.679	3009
258.741	3898
258.803	1571
258.866	1583
258.928	1578
258.990	1358
259.052	2133
259.114	3322
259.177	2194
259.239	1650
259.301	5395
259.363	2529
259.425	1227
259.487	1463
259.549	1909
259.611	863
259.674	1654
259.736	11255
259.798	17625
259.860	28136
259.922	18558
259.984	3644
260.046	2068
260.108	1897
260.170	1626
260.232	1609
260.294	1781
260.356	512
260.418	2673
260.480	4575
260.542	4341
260.604	14196
260.666	17290
260.728	3714
260.790	2736
260.852	1383
260.914	2983
260.976	1203
261.038	3330
261.100	16361
261.161	13879
261.223	3771
261.285	8536
261.347	11570
261.409	2561
261.471	1798
261.533	1411
261.595	1562
261.656	5183
261.718	12511
261.780	3275
261.842	2173
261.904	1794
261.966	1772
262.027	1928
262.089	4476
262.151	4103
262.213	2200
262.274	4484
262.336	3526
262.398	2490
262.460	4791
262.521	11447
262.583	2872
262.645	1472
262.706	3332
262.768	12021
262.830	4357
262.892	2476
262.953	3180
263.015	23482
263.077	46829
263.138	11890
263.200	4705
263.261	1748
263.323	1980
263.385	1332
263.446	1003
263.508	4336
263.569	2175
263.631	915
263.693	468
263.754	167
263.816	90
263.877	1036
263.939	-159
264.000	-232
264.062	1346
264.123	954
264.185	-412
264.246	523
264.308	1514
264.369	3838
264.431	138
264.492	349
264.554	576
264.615	246
264.677	417
264.738	608
264.800	-60
264.861	479
264.922	-444
264.984	207
265.045	279
265.107	1255
265.168	11156
265.229	7329
265.291	869
265.352	1457
265.413	499
265.475	-2
265.536	79
265.597	-184
265.659	-273
265.720	305
265.781	-776
265.843	160
265.904	2901
265.965	22183
266.026	11143
266.088	3369
266.149	1313
266.210	587
266.271	-957
266.333	446
266.394	591
266.455	-176
266.516	-554
266.577	2337
266.639	2855
266.700	686
266.761	-689
266.822	-260
266.883	-425
266.944	-438
267.005	636
267.067	-779
267.128	-363
267.189	-1074
267.250	585
267.311	280
267.372	-404
267.433	479
267.494	41
267.555	-175
267.616	-1371
267.677	-212
267.738	-1081
267.799	2788
267.860	5741
267.921	461
267.982	848
268.043	179
268.104	317
268.165	-388
268.226	-246
268.287	-350
268.348	137
268.409	721
268.470	-1074
268.531	-219
268.592	-937
268.653	-130
268.714	-397
268.775	31
268.836	2560
268.896	2896
268.957	253
269.018	-82
269.079	-185
269.140	296
269.201	624
269.262	723
269.322	153
269.383	679
269.444	695
269.505	1623
269.565	2264
269.626	902
269.687	348
269.748	566
269.809	-131
269.869	2833
269.930	313
269.991	-117
270.051	-445
270.112	-489
270.173	119
270.234	-134
270.294	431
270.355	435
270.416	28
270.476	-206
270.537	2515
270.598	5199
270.658	1312
270.719	602
270.779	2209
270.840	397
270.901	1138
270.961	1914
271.022	808
271.082	2295
271.143	1712
271.203	1792
271.264	222
271.325	1639
271.385	8549
271.446	3691
271.506	1413
271.567	1392
271.627	265
271.688	1223
271.748	4033
271.809	23310
271.869	29879
271.930	7806
271.990	14453
272.050	27056
272.111	4905
272.171	2970
272.232	3501
272.292	20466
272.352	8204
272.413	5990
272.473	4407
272.534	5465
272.594	3588
272.654	5968
272.715	11302
272.775	3534
272.835	2459
272.896	1690
272.956	1923
273.016	4505
273.077	3442
273.137	2268
273.197	2067
273.257	11660
273.318	23096
273.378	7316
273.438	7796
273.498	18256
273.559	6420
273.619	14320
273.679	28883
273.739	9276
273.799	4928
273.860	16950
273.920	32711
273.980	6830
274.040	3098
274.100	6175
274.160	31614
274.221	29593
274.281	25422
274.341	22189
274.401	12869
274.461	5782
274.521	5589
274.581	29719
274.641	39595
274.701	13246
274.761	5847
274.821	15467
274.882	56195
274.942	39977
275.002	19602
275.062	8421
275.122	5053
275.182	3822
275.242	5568
275.302	8231
275.362	6651
275.421	5171
275.481	22307
275.541	46886
275.601	20036
275.661	9112
275.721	5747
275.781	3173
275.841	2121
275.901	2783
275.961	2656
276.021	2112
276.081	4967
276.140	15431
276.200	5638
276.260	4393
276.320	2022
276.380	3673
276.440	1343
276.499	2705
276.559	480
276.619	3303
276.679	10672
276.738	7364
276.798	2907
276.858	4204
276.918	2470
276.978	1844
277.037	1784
277.097	3954
277.157	12104
277.216	4709
277.276	2728
277.336	2182
277.395	1749
277.455	2614
277.515	2011
277.574	9089
277.634	15224
277.694	5392
277.753	19755
277.813	15280
277.873	14260
277.932	44165
