'Start Wavelength	183.833
'End Wavelength	1047.133
'Gate Delay	5.000
'Gate Width (ms)	1.050
'Laser Output Level	0.000
'X Position	0.000
'Y Position	0.000
'Z Position	0.000
'Grid Point Number	1.000
'Shot Number	100.000
183.833	-41.000
183.903	950.000
183.973	442
184.042	851
184.112	292
184.182	60
184.252	541
184.321	-288
184.391	559
184.461	78
184.531	-101
184.600	1301
184.670	-57
184.740	384
184.809	843
184.879	352
184.949	180
185.018	267
185.088	536
185.158	586
185.228	102
185.297	279
185.367	604
185.436	360
185.506	124
185.576	884
185.645	886
185.715	610
185.785	458
185.854	-32
185.924	143
185.993	491
186.063	-15
186.133	222
186.202	-175
186.272	485
186.341	422
186.411	251
186.481	856
186.550	1368
186.620	700
186.689	574
186.759	-907
186.828	377
186.898	136
186.967	238
187.037	801
187.106	164
187.176	184
187.246	568
187.315	-122
187.385	806
187.454	323
187.524	-259
187.593	-73
187.662	1529
187.732	356
187.801	590
187.871	292
187.940	432
188.010	701
188.079	-104
188.149	599
188.218	1286
188.288	171
188.357	881
188.426	-56
188.496	1099
188.565	42
188.635	662
188.704	460
188.773	303
188.843	640
188.912	552
188.981	337
189.051	-667
189.120	65
189.190	802
189.259	-65
189.328	813
189.398	409
189.467	-44
189.536	79
189.606	-48
189.675	297
189.744	835
189.813	247
189.883	616
189.952	466
190.021	1656
190.091	1735
190.160	1212
190.229	-99
190.298	131
190.368	572
190.437	560
190.506	-134
190.575	359
190.645	301
190.714	119
190.783	608
190.852	1184
190.922	553
190.991	609
191.060	-118
191.129	1253
191.198	253
191.268	892
191.337	125
191.406	89
191.475	37
191.544	39
191.613	-65
191.683	548
191.752	855
191.821	-228
191.890	256
191.959	-83
192.028	829
192.097	285
192.166	475
192.236	927
192.305	-81
192.374	719
192.443	-92
192.512	387
192.581	354
192.650	304
192.719	6
192.788	60
192.857	12
192.926	312
192.995	-91
193.064	728
193.133	-690
193.202	463
193.271	668
193.340	1035
193.409	1132
193.478	1162
193.547	271
193.616	1175
193.685	-134
193.754	1004
193.823	88
193.892	382
193.961	697
194.030	370
194.099	511
194.168	262
194.237	-135
194.306	182
194.375	250
194.444	644
194.513	359
194.582	226
194.651	1164
194.720	602
194.788	18
194.857	357
194.926	901
194.995	840
195.064	848
195.133	595
195.202	1070
195.270	635
195.339	-49
195.408	96
195.477	1227
195.546	186
195.615	585
195.683	691
195.752	575
195.821	1033
195.890	1088
195.959	1207
196.027	847
196.096	1314
196.165	612
196.234	393
196.303	1038
196.371	895
196.440	-449
196.509	556
196.578	195
196.646	834
196.715	80
196.784	251
196.853	-172
196.921	262
196.990	218
197.059	1049
197.127	221
197.196	124
197.265	427
197.333	-62
197.402	713
197.471	10
197.539	460
197.608	998
197.677	2263
197.745	806
197.814	1598
197.883	1159
197.951	1012
198.020	524
198.088	608
198.157	1733
198.226	1988
198.294	640
198.363	272
198.431	388
198.500	999
198.569	1101
198.637	329
198.706	670
198.774	2316
198.843	1785
198.911	-51
198.980	521
199.048	1070
199.117	263
199.185	311
199.254	980
199.322	2
199.391	580
199.459	404
199.528	764
199.596	349
199.665	245
199.733	264
199.802	592
199.870	843
199.939	586
200.007	253
200.076	417
200.144	183
200.213	-181
200.281	293
200.349	888
200.418	1177
200.486	981
200.555	-387
200.623	332
200.691	-54
200.760	594
200.828	651
200.897	619
200.965	-464
201.033	914
201.102	437
201.170	115
201.238	322
201.307	845
201.375	420
201.443	474
201.512	593
201.580	734
201.648	9
201.716	450
201.785	1444
201.853	671
201.921	434
201.990	352
202.058	1023
202.126	833
202.194	-17
202.263	515
202.331	-111
202.399	847
202.467	428
202.536	4393
202.604	1136
202.672	801
202.740	302
202.808	492
202.877	325
202.945	42
203.013	-78
203.081	900
203.149	423
203.218	377
203.286	-66
203.354	826
203.422	446
203.490	422
203.558	460
203.626	319
203.695	-401
203.763	-4
203.831	612
203.899	490
203.967	137
204.035	514
204.103	85
204.171	601
204.239	995
204.307	780
204.375	228
204.443	-236
204.512	32
204.580	445
204.648	-99
204.716	559
204.784	570
204.852	695
204.920	-261
204.988	572
205.056	142
205.124	493
205.192	-113
205.260	380
205.328	-121
205.396	981
205.464	399
205.532	212
205.600	203
205.667	468
205.735	2115
205.803	2677
205.871	-121
205.939	369
206.007	352
206.075	1027
206.143	127
206.211	-243
206.279	-153
206.347	-68
206.414	-474
206.482	1300
206.550	281
206.618	318
206.686	225
206.754	738
206.822	1108
206.889	-340
206.957	113
207.025	-125
207.093	-360
207.161	563
207.229	539
207.296	276
207.364	125
207.432	-74
207.500	-581
207.567	140
207.635	-968
207.703	903
207.771	68
207.839	231
207.906	623
207.974	245
208.042	223
208.109	568
208.177	347
208.245	501
208.313	638
208.380	1477
208.448	257
208.516	61
208.583	732
208.651	766
208.719	428
208.786	894
208.854	374
208.922	467
208.989	377
209.057	33
209.125	58
209.192	580
209.260	608
209.327	1261
209.395	1120
209.463	425
209.530	-142
209.598	35
209.665	576
209.733	1168
209.801	626
209.868	-368
209.936	1212
210.003	939
210.071	535
210.138	1097
210.206	1751
210.273	1240
210.341	1178
210.408	469
210.476	389
210.543	999
210.611	1383
210.678	929
210.746	355
210.813	849
210.881	1016
210.948	955
211.016	1079
211.083	451
211.151	-51
211.218	1040
211.285	1407
211.353	1168
211.420	210
211.488	1017
211.555	461
211.622	419
211.690	324
211.757	939
211.825	807
211.892	968
211.959	831
212.027	57
212.094	504
212.161	670
212.229	1672
212.296	3770
212.363	9987
212.431	3834
212.498	956
212.565	997
212.633	442
212.700	543
212.767	732
212.835	1415
212.902	586
212.969	580
213.036	1009
213.104	559
213.171	1285
213.238	1310
213.305	456
213.373	356
213.440	578
213.507	892
213.574	616
213.641	245
213.709	537
213.776	538
213.843	1563
213.910	2464
213.977	1320
214.045	448
214.112	762
214.179	985
214.246	505
214.313	861
214.380	405
214.447	840
214.515	1290
214.582	979
214.649	1243
214.716	1179
214.783	11
214.850	1161
214.917	1292
214.984	1746
215.051	2140
215.118	1687
215.185	1693
215.253	706
215.320	390
215.387	1561
215.454	804
215.521	831
215.588	620
215.655	947
215.722	1985
215.789	1783
215.856	1758
215.923	1821
215.990	1185
216.057	682
216.124	779
216.191	1845
216.258	1036
216.325	1312
216.391	1511
216.458	1197
216.525	1673
216.592	4001
216.659	2669
216.726	682
216.793	497
216.860	1284
216.927	926
216.994	1113
217.061	1491
217.127	1313
217.194	1124
217.261	1705
217.328	1861
217.395	1230
217.462	320
217.529	-6
217.595	770
217.662	1886
217.729	2926
217.796	2763
217.863	1148
217.929	729
217.996	1773
218.063	1080
218.130	506
218.196	155
218.263	680
218.330	1415
218.397	1270
218.463	148
218.530	1611
218.597	3983
218.664	4147
218.730	1168
218.797	1184
218.864	372
218.930	337
218.997	1035
219.064	2036
219.131	3872
219.197	948
219.264	1017
219.331	256
219.397	561
219.464	536
219.530	2896
219.597	1097
219.664	1042
219.730	1500
219.797	731
219.864	1171
219.930	2352
219.997	6894
220.063	2827
220.130	1433
220.196	991
220.263	1215
220.330	1887
220.396	2191
220.463	1243
220.529	934
220.596	1757
220.662	1247
220.729	6455
220.795	3442
220.862	2849
220.928	4333
220.995	6686
221.061	7612
221.128	5670
221.194	1766
221.261	1096
221.327	1017
221.394	1376
221.460	1263
221.526	2184
221.593	8041
221.659	3877
221.726	5794
221.792	4188
221.859	2276
221.925	1210
221.991	1625
222.058	1232
222.124	2594
222.190	2173
222.257	1269
222.323	942
222.390	704
222.456	1246
222.522	419
222.589	1241
222.655	1210
222.721	822
222.788	339
222.854	1088
222.920	721
222.986	1223
223.053	669
223.119	476
223.185	58
223.251	-11
223.318	1353
223.384	1418
223.450	485
223.516	830
223.583	86
223.649	632
223.715	379
223.781	1344
223.848	1341
223.914	615
223.980	1005
224.046	1611
224.112	982
224.178	1023
224.245	226
224.311	890
224.377	545
224.443	832
224.509	883
224.575	753
224.641	691
224.708	302
224.774	1103
224.840	1628
224.906	646
224.972	1043
225.038	1352
225.104	2017
225.170	545
225.236	980
225.302	589
225.368	1264
225.434	335
225.500	1100
225.566	1231
225.632	1498
225.699	1515
225.765	2076
225.831	2138
225.897	3774
225.963	2337
226.028	2566
226.094	1709
226.160	2135
226.226	3602
226.292	6469
226.358	3990
226.424	3416
226.490	1610
226.556	1723
226.622	2950
226.688	4172
226.754	3214
226.820	10071
226.886	7343
226.951	2621
227.017	1403
227.083	1503
227.149	3143
227.215	3509
227.281	2284
227.347	2821
227.412	2205
227.478	8846
227.544	6167
227.610	2922
227.676	1770
227.742	1154
227.807	1223
227.873	936
227.939	3723
228.005	1171
228.070	424
228.136	524
228.202	967
228.268	2599
228.333	3431
228.399	2211
228.465	1238
228.531	824
228.596	1244
228.662	3140
228.728	2397
228.793	1300
228.859	852
228.925	2076
228.990	1630
229.056	2885
229.122	1572
229.187	2209
229.253	807
229.319	1590
229.384	2317
229.450	974
229.516	286
229.581	1279
229.647	2430
229.712	6123
229.778	6029
229.844	4436
229.909	5021
229.975	4797
230.040	3063
230.106	1932
230.171	3365
230.237	4834
230.302	4282
230.368	2419
230.433	1926
230.499	3691
230.564	2230
230.630	1793
230.695	1614
230.761	1756
230.826	4040
230.892	1949
230.957	1096
231.023	1376
231.088	1136
231.154	1677
231.219	3338
231.285	3008
231.350	1702
231.415	976
231.481	1279
231.546	1071
231.612	1316
231.677	1061
231.742	1882
231.808	1300
231.873	374
231.938	5145
232.004	4099
232.069	1241
232.135	1581
232.200	1434
232.265	1359
232.330	1153
232.396	812
232.461	1598
232.526	563
232.592	1941
232.657	2830
232.722	2612
232.788	1641
232.853	1682
232.918	1403
232.983	1153
233.048	3498
233.114	3150
233.179	5147
233.244	4758
233.309	1233
233.375	2145
233.440	995
233.505	1071
233.570	1442
233.635	1169
233.700	3604
233.766	4284
233.831	2618
233.896	2351
233.961	2748
234.026	1711
234.091	2046
234.156	2655
234.222	3914
234.287	10502
234.352	8447
234.417	5998
234.482	3042
234.547	3255
234.612	2798
234.677	3788
234.742	11155
234.807	6880
234.872	3455
234.937	2476
235.002	3193
235.067	2260
235.132	2083
235.197	2448
235.262	1879
235.327	2189
235.392	2982
235.457	3403
235.522	2381
235.587	2015
235.652	1097
235.717	1972
235.782	3122
235.847	6072
235.912	6614
235.977	5430
236.042	3132
236.107	2660
236.172	2974
236.236	2514
236.301	2507
236.366	3957
236.431	6277
236.496	2781
236.561	4591
236.626	14957
236.691	9111
236.755	4436
236.820	4842
236.885	4166
236.950	3594
237.015	3921
237.079	3902
237.144	4783
237.209	15115
237.274	26483
237.339	11850
237.403	6054
237.468	5792
237.533	3806
237.598	3444
237.662	2656
237.727	2657
237.792	4579
237.856	3481
237.921	3398
237.986	5072
238.050	5322
238.115	14704
238.180	10845
238.245	6127
238.309	5091
238.374	3332
238.438	4087
238.503	1242
238.568	3233
238.632	1716
238.697	2471
238.762	7255
238.826	7213
238.891	5047
238.955	4534
239.020	2620
239.085	3484
239.149	2095
239.214	2977
239.278	2137
239.343	1851
239.407	2723
239.472	14149
239.536	9392
239.601	4525
239.665	2615
239.730	5581
239.794	14393
239.859	13476
239.923	5105
239.988	2749
240.052	2961
240.117	2455
240.181	2460
240.246	3119
240.310	3036
240.374	8459
240.439	12637
240.503	4701
240.568	6653
240.632	6953
240.696	3615
240.761	1952
240.825	1542
240.890	2354
240.954	7929
241.018	12490
241.083	6704
241.147	2961
241.211	4588
241.276	7305
241.340	4324
241.404	3334
241.469	3599
241.533	3524
241.597	2937
241.661	3248
241.726	3767
241.790	3529
241.854	2512
241.919	3299
241.983	1820
242.047	2426
242.111	2380
242.175	1855
242.240	3533
242.304	3469
242.368	2979
242.432	3042
242.496	2050
242.561	1810
242.625	2390
242.689	1733
242.753	2501
242.817	3018
242.881	2324
242.946	3018
243.010	3047
243.074	3503
243.138	2501
243.202	2698
243.266	2314
243.330	3504
243.394	13129
243.458	33658
243.522	10863
243.586	5273
243.651	3243
243.715	4553
243.779	5514
243.843	6871
243.907	10047
243.971	6561
244.035	3424
244.099	2659
244.163	5635
244.227	6482
244.291	6661
244.355	3683
244.419	3367
244.483	2445
244.546	2171
244.610	3033
244.674	4025
244.738	4213
244.802	3033
244.866	2678
244.930	1941
244.994	2792
245.058	3097
245.122	4682
245.186	4423
245.249	5132
245.313	3392
245.377	3823
245.441	2021
245.505	3162
245.569	3260
245.632	4000
245.696	10748
245.760	5686
245.824	3203
245.888	3346
245.951	2912
246.015	3502
246.079	4934
246.143	15048
246.207	20504
246.270	7989
246.334	5478
246.398	6199
246.461	9863
246.525	5919
246.589	4307
246.653	4431
246.716	6374
246.780	7334
246.844	8913
246.907	3722
246.971	3453
247.035	3591
247.098	4482
247.162	13950
247.226	30081
247.289	12582
247.353	5640
247.416	11889
247.480	6640
247.544	5780
247.607	6276
247.671	4633
247.734	3278
247.798	5199
247.861	12520
247.925	24733
247.989	8306
248.052	5012
248.116	5367
248.179	10681
248.243	46012
248.306	42174
248.370	26495
248.433	8930
248.497	8530
248.560	13867
248.624	15478
248.687	21352
248.751	47094
248.814	22954
248.877	24342
248.941	33892
249.004	54627
249.068	41463
249.131	16026
249.194	10193
249.258	10737
249.321	8889
249.385	7421
249.448	6748
249.511	7636
249.575	13161
249.638	8356
249.701	5853
249.765	6364
249.828	6066
249.891	6098
249.955	5252
250.018	18940
250.081	22504
250.145	9459
250.208	7022
250.271	7396
250.334	6656
250.398	5415
250.461	8075
250.524	10916
250.587	43600
250.651	61778
250.714	20759
250.777	12772
250.840	7587
250.903	7987
250.967	13564
251.030	27632
251.093	11969
251.156	12407
251.219	10666
251.282	13777
251.345	59908
251.409	47254
251.472	29616
251.535	104637
251.598	59658
251.661	23830
251.724	34151
251.787	31201
251.850	68637
251.913	32168
251.976	14063
252.039	11099
252.103	10459
252.166	23988
252.229	52385
252.292	47658
252.355	91800
252.418	33811
252.481	18884
252.544	12495
252.607	14882
252.670	38444
252.733	42461
252.796	85604
252.858	54771
252.921	31297
252.984	19130
253.047	13326
253.110	10340
253.173	13721
253.236	11651
253.299	12093
253.362	11690
253.425	13068
253.488	29683
253.550	15745
253.613	18844
253.676	18345
253.739	9242
253.802	10668
253.865	9958
253.928	8857
253.990	19787
254.053	26804
254.116	22020
254.179	16630
254.242	9161
254.304	16872
254.367	17986
254.430	14667
254.493	19523
254.555	28695
254.618	15783
254.681	9375
254.743	8765
254.806	8447
254.869	20522
254.932	18873
254.994	9108
255.057	8318
255.120	4575
255.182	4414
255.245	6305
255.308	4051
255.370	3019
255.433	2688
255.496	3399
255.558	3897
255.621	4687
255.683	2420
255.746	3660
255.809	2884
255.871	3391
255.934	3137
255.996	3736
256.059	2802
256.121	4340
256.184	11414
256.246	8063
256.309	7298
256.371	5541
256.434	4318
256.496	3048
256.559	3528
256.621	4919
256.684	9690
256.746	18085
256.809	8085
256.871	4744
256.934	4832
256.996	5921
257.059	4627
257.121	4203
257.183	3457
257.246	3477
257.308	3035
257.371	6956
257.433	28089
257.495	28875
257.558	28192
257.620	15553
257.683	6720
257.745	6765
257.807	3635
257.870	4488
257.932	4343
257.994	4305
258.056	4192
258.119	6433
258.181	10750
258.243	5990
258.306	4725
258.368	19038
258.430	14683
258.492	17851
258.555	19196
258.617	5474
258.679	5554
258.741	10749
258.803	5350
258.866	4022
258.928	4530
258.990	4616
259.052	4825
259.114	6931
259.177	5528
259.239	7852
259.301	21896
259.363	11462
259.425	5586
259.487	5112
259.549	4579
259.611	4686
259.674	4534
259.736	16302
259.798	26025
259.860	43688
259.922	34562
259.984	10093
260.046	5931
260.108	4207
260.170	4530
260.232	3854
260.294	4419
260.356	4078
260.418	8947
260.480	21171
260.542	14386
260.604	28151
260.666	28651
260.728	8272
260.790	8178
260.852	5808
260.914	5723
260.976	5342
261.038	13062
261.100	33351
261.161	21605
261.223	8618
261.285	14912
261.347	18240
261.409	5889
261.471	6537
261.533	3441
261.595	4045
261.656	8716
261.718	21364
261.780	9995
261.842	7612
261.904	5040
261.966	6182
262.027	4614
262.089	8842
262.151	6579
262.213	4979
262.274	14959
262.336	10248
262.398	5536
262.460	10802
262.521	17781
262.583	6220
262.645	3745
262.706	6725
262.768	17459
262.830	6991
262.892	6075
262.953	6066
263.015	31055
263.077	64545
263.138	21546
263.200	13932
263.261	6728
263.323	4305
263.385	3448
263.446	4560
263.508	13351
263.569	7781
263.631	3715
263.693	2519
263.754	3855
263.816	2165
263.877	1817
263.939	1804
264.000	5701
264.062	13400
264.123	5815
264.185	2488
264.246	2426
264.308	10315
264.369	22700
264.431	6366
264.492	3666
264.554	8473
264.615	17253
264.677	6303
264.738	3634
264.800	2262
264.861	2840
264.922	3321
264.984	2179
265.045	3132
265.107	2618
265.168	8942
265.229	6968
265.291	3431
265.352	2720
265.413	2037
265.475	1547
265.536	3177
265.597	2834
265.659	2248
265.720	1264
265.781	1088
265.843	1373
265.904	3175
265.965	15789
266.026	8615
266.088	5267
266.149	5863
266.210	2413
266.271	903
266.333	1835
266.394	2426
266.455	2445
266.516	1425
266.577	6978
266.639	12615
266.700	3178
266.761	2143
266.822	1916
266.883	6089
266.944	2941
267.005	2991
267.067	1919
267.128	1262
267.189	2073
267.250	3245
267.311	2685
267.372	1370
267.433	2696
267.494	2050
267.555	1904
267.616	486
267.677	1414
267.738	1573
267.799	8490
267.860	16832
267.921	7076
267.982	5296
268.043	3051
268.104	3491
268.165	2163
268.226	2117
268.287	2124
268.348	3091
268.409	2786
268.470	1401
268.531	732
268.592	1732
268.653	1415
268.714	2671
268.775	3187
268.836	11523
268.896	12342
268.957	5430
269.018	1958
269.079	2277
269.140	1582
269.201	2560
269.262	1907
269.322	1644
269.383	2799
269.444	4479
269.505	7369
269.565	8670
269.626	4003
269.687	3240
269.748	2097
269.809	4775
269.869	7385
269.930	3108
269.991	1348
270.051	2261
270.112	2355
270.173	2398
270.234	2027
270.294	2711
270.355	2649
270.416	2283
270.476	3246
270.537	7748
270.598	17452
270.658	7176
270.719	3565
270.779	6444
270.840	3771
270.901	3331
270.961	4724
271.022	4615
271.082	8759
271.143	7120
271.203	3211
271.264	3589
271.325	4127
271.385	14046
271.446	6973
271.506	4718
271.567	4900
271.627	3938
271.688	5047
271.748	13234
271.809	49325
271.869	60207
271.930	16993
271.990	30534
272.050	50365
272.111	13112
272.171	6771
272.232	9920
272.292	39508
272.352	17754
272.413	14794
272.473	13298
272.534	13982
272.594	10896
272.654	10359
272.715	19223
272.775	9352
272.835	7961
272.896	4628
272.956	5641
273.016	9675
273.077	8462
273.137	5985
273.197	6836
273.257	28385
273.318	51605
273.378	18516
273.438	19891
273.498	44025
273.559	17163
273.619	28614
273.679	56811
273.739	19204
273.799	10710
273.860	25018
273.920	45154
273.980	12293
274.040	9103
274.100	13718
274.160	69076
274.221	52901
274.281	40081
274.341	47298
274.401	30442
274.461	11744
274.521	10207
274.581	39635
274.641	51970
274.701	19172
274.761	9790
274.821	21670
274.882	74617
274.942	63823
275.002	35000
275.062	13439
275.122	8886
275.182	7509
275.242	9824
275.302	15863
275.362	15733
275.421	10054
275.481	30521
275.541	69086
275.601	40975
275.661	22106
275.721	16069
275.781	9041
275.841	5975
275.901	7665
275.961	6468
276.021	5223
276.081	13401
276.140	35156
276.200	13999
276.260	10857
276.320	6590
276.380	8216
276.440	6383
276.499	4497
276.559	4473
276.619	8433
276.679	23902
276.738	16258
276.798	7288
