'Start Wavelength	183.833
'End Wavelength	1047.133
'Gate Delay	5.000
'Gate Width (ms)	1.050
'Laser Output Level	0.000
'X Position	0.000
'Y Position	0.000
'Z Position	0.000
'Grid Point Number	1.000
'Shot Number	100.000
183.833	-225.000
183.903	331.000
183.973	575
184.042	572
184.112	294
184.182	265
184.252	128
184.321	30
184.391	341
184.461	245
184.531	-223
184.600	-288
184.670	104
184.740	-18
184.809	542
184.879	-109
184.949	-38
185.018	251
185.088	-272
185.158	14
185.228	326
185.297	89
185.367	-44
185.436	426
185.506	299
185.576	745
185.645	0
185.715	-336
185.785	-537
185.854	-36
185.924	-263
185.993	-475
186.063	-210
186.133	-343
186.202	196
186.272	407
186.341	-139
186.411	91
186.481	247
186.550	175
186.620	-70
186.689	-170
186.759	148
186.828	37
186.898	67
186.967	406
187.037	385
187.106	159
187.176	-113
187.246	219
187.315	-967
187.385	78
187.454	-442
187.524	128
187.593	-351
187.662	336
187.732	168
187.801	-471
187.871	-271
187.940	-207
188.010	-393
188.079	-120
188.149	150
188.218	469
188.288	-356
188.357	233
188.426	-146
188.496	-96
188.565	-69
188.635	-164
188.704	-232
188.773	-472
188.843	-35
188.912	-643
188.981	162
189.051	-341
189.120	64
189.190	368
189.259	51
189.328	-232
189.398	234
189.467	-777
189.536	661
189.606	-999
189.675	242
189.744	300
189.813	-29
189.883	253
189.952	384
190.021	456
190.091	1233
190.160	422
190.229	-355
190.298	-511
190.368	74
190.437	-529
190.506	-451
190.575	150
190.645	-160
190.714	96
190.783	361
190.852	-310
190.922	123
190.991	-474
191.060	-160
191.129	241
191.198	230
191.268	-421
191.337	-107
191.406	573
191.475	565
191.544	-233
191.613	149
191.683	-502
191.752	-196
191.821	-364
191.890	-463
191.959	-402
192.028	757
192.097	-920
192.166	-366
192.236	-469
192.305	-450
192.374	-634
192.443	144
192.512	69
192.581	-775
192.650	-630
192.719	-509
192.788	-683
192.857	-457
192.926	-481
192.995	345
193.064	-538
193.133	629
193.202	263
193.271	48
193.340	401
193.409	546
193.478	-580
193.547	158
193.616	239
193.685	-81
193.754	250
193.823	107
193.892	-666
193.961	-240
194.030	147
194.099	-548
194.168	72
194.237	223
194.306	-508
194.375	-150
194.444	-430
194.513	601
194.582	-391
194.651	223
194.720	120
194.788	-21
194.857	-138
194.926	-66
194.995	272
195.064	76
195.133	83
195.202	-4
195.270	-426
195.339	-69
195.408	-259
195.477	199
195.546	94
195.615	-469
195.683	378
195.752	151
195.821	32
195.890	635
195.959	-147
196.027	-142
196.096	341
196.165	650
196.234	153
196.303	195
196.371	-413
196.440	343
196.509	-681
196.578	-617
196.646	317
196.715	109
196.784	-386
196.853	-7
196.921	-275
196.990	-528
197.059	83
197.127	-101
197.196	-519
197.265	140
197.333	-603
197.402	798
197.471	74
197.539	679
197.608	412
197.677	1596
197.745	385
197.814	1589
197.883	-577
197.951	1535
198.020	210
198.088	-23
198.157	544
198.226	825
198.294	667
198.363	-761
198.431	-390
198.500	597
198.569	1328
198.637	-161
198.706	731
198.774	1484
198.843	744
198.911	-266
198.980	-720
199.048	77
199.117	322
199.185	459
199.254	-424
199.322	366
199.391	-77
199.459	-205
199.528	-443
199.596	305
199.665	77
199.733	-266
199.802	576
199.870	398
199.939	-261
200.007	369
200.076	-967
200.144	-56
200.213	-340
200.281	19
200.349	333
200.418	64
200.486	-612
200.555	-188
200.623	32
200.691	916
200.760	495
200.828	-801
200.897	-216
200.965	-182
201.033	-555
201.102	-207
201.170	-334
201.238	338
201.307	419
201.375	-84
201.443	341
201.512	-412
201.580	-427
201.648	-528
201.716	-165
201.785	201
201.853	-231
201.921	251
201.990	-165
202.058	-118
202.126	-4
202.194	215
202.263	-25
202.331	-92
202.399	-460
202.467	514
202.536	2594
202.604	906
202.672	452
202.740	272
202.808	600
202.877	197
202.945	-105
203.013	-512
203.081	-607
203.149	-278
203.218	-379
203.286	191
203.354	-621
203.422	-521
203.490	-40
203.558	140
203.626	271
203.695	-741
203.763	-577
203.831	51
203.899	-93
203.967	-114
204.035	-332
204.103	-515
204.171	-1164
204.239	165
204.307	-788
204.375	126
204.443	-737
204.512	-635
204.580	-532
204.648	-538
204.716	-291
204.784	217
204.852	-317
204.920	-705
204.988	153
205.056	96
205.124	-162
205.192	-134
205.260	-63
205.328	-95
205.396	-542
205.464	336
205.532	-513
205.600	-407
205.667	682
205.735	1866
205.803	1797
205.871	363
205.939	496
206.007	-430
206.075	-708
206.143	84
206.211	-1294
206.279	4
206.347	-199
206.414	-763
206.482	-262
206.550	-60
206.618	145
206.686	-400
206.754	443
206.822	-790
206.889	-628
206.957	250
207.025	-364
207.093	-176
207.161	-432
207.229	-62
207.296	-182
207.364	-346
207.432	-438
207.500	-888
207.567	-45
207.635	-245
207.703	-526
207.771	-553
207.839	-353
207.906	-370
207.974	-802
208.042	-472
208.109	-114
208.177	-339
208.245	-199
208.313	404
208.380	158
208.448	-312
208.516	-260
208.583	229
208.651	314
208.719	-115
208.786	-320
208.854	-65
208.922	-342
208.989	217
209.057	-217
209.125	-406
209.192	-88
209.260	-769
209.327	430
209.395	207
209.463	-601
209.530	-410
209.598	-322
209.665	-334
209.733	-455
209.801	-675
209.868	-161
209.936	-214
210.003	430
210.071	98
210.138	-168
210.206	-38
210.273	153
210.341	318
210.408	-739
210.476	-212
210.543	-16
210.611	565
210.678	45
210.746	-875
210.813	368
210.881	96
210.948	-148
211.016	747
211.083	-725
211.151	-74
211.218	389
211.285	-152
211.353	-339
211.420	-502
211.488	-561
211.555	-148
211.622	-102
211.690	-779
211.757	-529
211.825	-273
211.892	-31
211.959	-1066
212.027	-184
212.094	-511
212.161	409
212.229	132
212.296	2343
212.363	8234
212.431	2263
212.498	468
212.565	-741
212.633	77
212.700	424
212.767	-416
212.835	413
212.902	-60
212.969	189
213.036	8
213.104	-64
213.171	387
213.238	283
213.305	-148
213.373	-416
213.440	648
213.507	55
213.574	-227
213.641	-405
213.709	-1091
213.776	18
213.843	416
213.910	313
213.977	190
214.045	243
214.112	-647
214.179	-434
214.246	-256
214.313	-352
214.380	37
214.447	635
214.515	350
214.582	832
214.649	351
214.716	-709
214.783	-67
214.850	735
214.917	134
214.984	363
215.051	392
215.118	-365
215.185	11
215.253	47
215.320	116
215.387	266
215.454	-203
215.521	-309
215.588	107
215.655	-454
215.722	80
215.789	-167
215.856	476
215.923	153
215.990	-307
216.057	179
216.124	-79
216.191	-259
216.258	208
216.325	140
216.391	160
216.458	-186
216.525	582
216.592	1091
216.659	1047
216.726	371
216.793	-150
216.860	-329
216.927	-81
216.994	53
217.061	174
217.127	203
217.194	280
217.261	234
217.328	-273
217.395	47
217.462	239
217.529	-435
217.595	-391
217.662	66
217.729	1466
217.796	1433
217.863	-302
217.929	78
217.996	71
218.063	-469
218.130	496
218.196	-609
218.263	-6
218.330	-270
218.397	325
218.463	-371
218.530	488
218.597	1738
218.664	1842
218.730	246
218.797	185
218.864	227
218.930	-798
218.997	52
219.064	135
219.131	1503
219.197	454
219.264	-38
219.331	-39
219.397	-564
219.464	313
219.530	1205
219.597	313
219.664	-76
219.730	146
219.797	-134
219.864	-317
219.930	-29
219.997	3153
220.063	1319
220.130	368
220.196	-180
220.263	-56
220.330	-403
220.396	1361
220.463	125
220.529	-377
220.596	527
220.662	363
220.729	4101
220.795	1273
220.862	822
220.928	1860
220.995	4718
221.061	5020
221.128	4287
221.194	678
221.261	131
221.327	224
221.394	21
221.460	286
221.526	694
221.593	5648
221.659	3023
221.726	3590
221.792	2515
221.859	936
221.925	511
221.991	125
222.058	-196
222.124	1171
222.190	428
222.257	-159
222.323	-199
222.390	422
222.456	-1
222.522	-175
222.589	233
222.655	41
222.721	25
222.788	-624
222.854	-563
222.920	-340
222.986	-646
223.053	-610
223.119	-295
223.185	55
223.251	-259
223.318	-232
223.384	-567
223.450	-249
223.516	-192
223.583	-143
223.649	-91
223.715	-168
223.781	-756
223.848	-369
223.914	-450
223.980	-51
224.046	-961
224.112	245
224.178	-294
224.245	-780
224.311	-140
224.377	-162
224.443	-460
224.509	-100
224.575	-247
224.641	-246
224.708	-423
224.774	94
224.840	678
224.906	-65
224.972	-298
225.038	-535
225.104	8
225.170	-481
225.236	-99
225.302	-335
225.368	-496
225.434	-88
225.500	16
225.566	472
225.632	-15
225.699	654
225.765	539
225.831	-967
225.897	1470
225.963	507
226.028	221
226.094	591
226.160	69
226.226	1418
226.292	2120
226.358	1387
226.424	-124
226.490	-360
226.556	-255
226.622	738
226.688	190
226.754	462
226.820	4385
226.886	3880
226.951	673
227.017	925
227.083	-17
227.149	971
227.215	435
227.281	-603
227.347	404
227.412	223
227.478	1974
227.544	2138
227.610	586
227.676	252
227.742	-449
227.807	489
227.873	526
227.939	765
228.005	-198
228.070	93
228.136	-144
228.202	-542
228.268	127
228.333	1049
228.399	-109
228.465	-675
228.531	179
228.596	157
228.662	1108
228.728	219
228.793	-39
228.859	-417
228.925	619
228.990	-53
229.056	235
229.122	-137
229.187	297
229.253	-536
229.319	-160
229.384	535
229.450	221
229.516	-982
229.581	665
229.647	385
229.712	2380
229.778	3162
229.844	1083
229.909	1277
229.975	744
230.040	273
230.106	653
230.171	679
230.237	1562
230.302	1634
230.368	64
230.433	89
230.499	344
230.564	63
230.630	228
230.695	254
230.761	-685
230.826	661
230.892	511
230.957	17
231.023	148
231.088	27
231.154	462
231.219	1208
231.285	506
231.350	568
231.415	-66
231.481	-175
231.546	30
231.612	-38
231.677	-333
231.742	800
231.808	-549
231.873	-810
231.938	1836
232.004	938
232.069	-45
232.135	247
232.200	950
232.265	-158
232.330	-505
232.396	-781
232.461	9
232.526	-361
232.592	47
232.657	873
232.722	1143
232.788	-143
232.853	-30
232.918	-240
232.983	-392
233.048	1317
233.114	1218
233.179	2441
233.244	2025
233.309	-54
233.375	-346
233.440	340
233.505	-559
233.570	776
233.635	-88
233.700	1410
233.766	1324
233.831	506
233.896	191
233.961	1159
234.026	-148
234.091	643
234.156	270
234.222	1267
234.287	6591
234.352	4844
234.417	2221
234.482	1746
234.547	696
234.612	1230
234.677	970
234.742	6045
234.807	3017
234.872	1836
234.937	133
235.002	581
235.067	772
235.132	460
235.197	764
235.262	-105
235.327	-111
235.392	798
235.457	1096
235.522	1119
235.587	-181
235.652	-1060
235.717	500
235.782	1045
235.847	2890
235.912	3154
235.977	3218
236.042	914
236.107	874
236.172	716
236.236	303
236.301	721
236.366	2100
236.431	3253
236.496	1144
236.561	2322
236.626	7801
236.691	4694
236.755	1941
236.820	2025
236.885	1639
236.950	283
237.015	1143
237.079	1775
237.144	1753
237.209	8087
237.274	14392
237.339	6567
237.403	1803
237.468	2269
237.533	482
237.598	1197
237.662	357
237.727	918
237.792	944
237.856	1455
237.921	1155
237.986	2567
238.050	2456
238.115	8835
238.180	6895
238.245	2835
238.309	2281
238.374	513
238.438	1312
238.503	129
238.568	1230
238.632	643
238.697	525
238.762	4211
238.826	4176
238.891	2006
238.955	1907
239.020	573
239.085	1518
239.149	403
239.214	907
239.278	245
239.343	221
239.407	1112
239.472	9079
239.536	5901
239.601	2524
239.665	860
239.730	1616
239.794	5989
239.859	6841
239.923	2635
239.988	1019
240.052	1448
240.117	1168
240.181	614
240.246	855
240.310	886
240.374	5152
240.439	7516
240.503	2356
240.568	4583
240.632	4726
240.696	1946
240.761	824
240.825	824
240.890	746
240.954	4809
241.018	7924
241.083	2674
241.147	839
241.211	2604
241.276	4073
241.340	1372
241.404	912
241.469	1922
241.533	1735
241.597	1022
241.661	705
241.726	967
241.790	840
241.854	320
241.919	620
241.983	1178
242.047	420
242.111	1211
242.175	-121
242.240	1327
242.304	304
242.368	804
242.432	870
242.496	-17
242.561	438
242.625	1081
242.689	379
242.753	948
242.817	972
242.881	578
242.946	771
243.010	1285
243.074	1213
243.138	501
243.202	930
243.266	192
243.330	955
243.394	9501
243.458	24064
243.522	6646
243.586	2285
243.651	1320
243.715	1285
243.779	2288
243.843	3565
243.907	4510
243.971	1514
244.035	1604
244.099	172
244.163	2247
244.227	3167
244.291	2672
244.355	1629
244.419	1092
244.483	807
244.546	467
244.610	945
244.674	254
244.738	1278
244.802	652
244.866	390
244.930	404
244.994	982
245.058	1213
245.122	1847
245.186	1094
245.249	2473
245.313	616
245.377	1444
245.441	264
245.505	1406
245.569	1012
245.632	419
245.696	4589
245.760	1674
245.824	1048
245.888	1179
245.951	893
246.015	1253
246.079	2106
246.143	7025
246.207	11340
246.270	4354
246.334	2383
246.398	3072
246.461	3326
246.525	2051
246.589	1635
246.653	1432
246.716	2468
246.780	2122
246.844	3928
246.907	620
246.971	1925
247.035	1641
247.098	2508
247.162	6532
247.226	15878
247.289	5342
247.353	2294
247.416	4847
247.480	2838
247.544	1868
247.607	2716
247.671	2344
247.734	1581
247.798	2462
247.861	5957
247.925	13796
247.989	3682
248.052	1340
248.116	3334
248.179	4643
248.243	24183
248.306	20834
248.370	14518
248.433	4827
248.497	3191
248.560	5663
248.624	6866
248.687	9758
248.751	24895
248.814	10629
248.877	12845
248.941	18290
249.004	30158
249.068	22298
249.131	7476
249.194	4522
249.258	5978
249.321	3435
249.385	3483
249.448	2129
249.511	3945
249.575	6157
249.638	3890
249.701	2726
249.765	3002
249.828	3024
249.891	3178
249.955	2803
250.018	11188
250.081	12203
250.145	5469
250.208	3823
250.271	4544
250.334	3971
250.398	2996
250.461	4077
250.524	6169
250.587	29314
250.651	40659
250.714	12639
250.777	8288
250.840	4231
250.903	5279
250.967	7920
251.030	15838
251.093	7169
251.156	6246
251.219	5292
251.282	8177
251.345	40041
251.409	30657
251.472	20125
251.535	72789
251.598	40413
251.661	14950
251.724	19788
251.787	19322
251.850	45067
251.913	20629
251.976	8994
252.039	7149
252.103	5156
252.166	13189
252.229	26842
252.292	28505
252.355	58906
252.418	21054
252.481	11038
252.544	6591
252.607	7872
252.670	21389
252.733	26209
252.796	57674
252.858	31540
252.921	15663
252.984	9632
253.047	6550
253.110	5513
253.173	8014
253.236	6065
253.299	5518
253.362	4658
253.425	7557
253.488	13721
253.550	7706
253.613	8979
253.676	8482
253.739	3533
253.802	6089
253.865	3995
253.928	3634
253.990	9818
254.053	14136
254.116	10054
254.179	7673
254.242	4111
254.304	7617
254.367	7678
254.430	6615
254.493	9830
254.555	15649
254.618	7657
254.681	3994
254.743	3578
254.806	4301
254.869	10741
254.932	10031
254.994	4606
255.057	2918
255.120	1863
255.182	1881
255.245	2145
255.308	1302
255.370	775
255.433	942
255.496	614
255.558	976
255.621	1839
255.683	476
255.746	1901
255.809	763
255.871	1021
255.934	736
255.996	1596
256.059	727
256.121	1597
256.184	6571
256.246	4259
256.309	3574
256.371	1277
256.434	928
256.496	880
256.559	1462
256.621	2449
256.684	3886
256.746	10218
256.809	2486
256.871	1280
256.934	2288
256.996	2411
257.059	1437
257.121	1123
257.183	1365
257.246	711
257.308	1380
257.371	3043
257.433	14595
257.495	13635
257.558	14134
257.620	6840
257.683	2160
257.745	2690
257.807	1600
257.870	1768
257.932	1636
257.994	517
258.056	641
258.119	2614
258.181	4984
258.243	2212
258.306	1931
258.368	7923
258.430	7320
258.492	10073
258.555	11437
258.617	1434
258.679	2574
258.741	4136
258.803	2057
258.866	1215
258.928	1284
258.990	1127
259.052	2262
259.114	3348
259.177	2853
259.239	3188
259.301	10135
259.363	5249
259.425	2526
259.487	1896
259.549	1588
259.611	1853
259.674	1868
259.736	9575
259.798	16013
259.860	26040
259.922	18251
259.984	4330
260.046	2496
260.108	2473
260.170	2110
260.232	1591
260.294	1839
260.356	1252
260.418	3116
260.480	8838
260.542	7265
260.604	13454
260.666	16734
260.728	3296
260.790	3349
260.852	1767
260.914	2600
260.976	1697
261.038	3831
261.100	17215
261.161	13685
261.223	3924
261.285	7549
261.347	10681
261.409	2405
261.471	2820
261.533	805
261.595	1725
261.656	5023
261.718	10806
261.780	4046
261.842	2743
261.904	930
261.966	1782
262.027	1857
262.089	4213
262.151	3448
262.213	2119
262.274	6499
262.336	3978
262.398	2135
262.460	5525
262.521	10711
262.583	3455
262.645	1615
262.706	3044
262.768	10912
262.830	4253
262.892	2763
262.953	2716
263.015	20042
263.077	44077
263.138	12372
263.200	5074
263.261	2299
263.323	1838
263.385	845
263.446	1563
263.508	5351
263.569	2752
263.631	447
263.693	290
263.754	1623
263.816	256
263.877	904
263.939	-68
264.000	769
264.062	2163
264.123	1854
264.185	-176
264.246	656
264.308	1924
264.369	5274
264.431	784
264.492	277
264.554	1318
264.615	2045
264.677	838
264.738	248
264.800	104
264.861	552
264.922	505
264.984	-365
265.045	51
265.107	400
265.168	2787
265.229	2521
265.291	-221
265.352	978
265.413	713
265.475	-661
265.536	529
265.597	622
265.659	-658
265.720	187
265.781	-262
265.843	-676
265.904	740
265.965	7372
266.026	4087
266.088	1583
266.149	2125
266.210	161
266.271	-435
266.333	784
266.394	435
266.455	-218
266.516	126
266.577	2691
266.639	4181
266.700	330
266.761	-104
266.822	453
266.883	81
266.944	636
267.005	719
267.067	177
267.128	320
267.189	-487
267.250	1101
267.311	723
267.372	-287
267.433	192
267.494	825
267.555	-77
267.616	78
267.677	538
267.738	-120
267.799	3716
267.860	6632
267.921	1061
267.982	991
268.043	431
268.104	225
268.165	-385
268.226	231
268.287	-229
268.348	-110
268.409	47
268.470	216
268.531	193
268.592	-682
268.653	-1178
268.714	262
268.775	518
268.836	2944
268.896	3785
268.957	1224
269.018	412
269.079	1089
269.140	153
269.201	202
269.262	312
269.322	345
269.383	198
269.444	876
269.505	2247
269.565	2482
269.626	1135
269.687	371
269.748	775
269.809	1577
269.869	2722
269.930	889
269.991	743
270.051	-507
270.112	-87
270.173	188
270.234	48
270.294	768
270.355	779
270.416	-52
270.476	674
270.537	2420
270.598	7758
270.658	1516
270.719	1167
270.779	1708
270.840	497
270.901	454
270.961	1464
271.022	1536
271.082	3006
271.143	2302
271.203	990
271.264	478
271.325	1967
271.385	6635
271.446	3335
271.506	1297
271.567	1542
271.627	1091
271.688	1948
271.748	5088
271.809	24755
271.869	32187
271.930	8105
271.990	16146
272.050	30146
272.111	7130
272.171	3560
272.232	4639
272.292	22663
272.352	10587
272.413	5953
272.473	5060
272.534	5855
272.594	3728
272.654	5072
272.715	9697
272.775	3784
272.835	3480
272.896	1982
272.956	2200
273.016	4018
273.077	3560
273.137	2793
273.197	3069
273.257	12594
273.318	26145
273.378	8608
273.438	10079
273.498	20745
273.559	8873
273.619	16010
273.679	32207
273.739	10667
273.799	6063
273.860	16321
273.920	30739
273.980	6287
274.040	4502
274.100	6525
274.160	34878
274.221	29252
274.281	22890
274.341	24525
274.401	14230
274.461	6046
274.521	5575
274.581	25555
274.641	32796
274.701	12248
274.761	4833
274.821	14203
274.882	48563
274.942	39058
275.002	22252
275.062	7975
275.122	4485
275.182	3331
275.242	5044
275.302	8127
275.362	7959
275.421	6261
275.481	20111
275.541	45071
275.601	21535
275.661	9762
275.721	6352
275.781	4461
275.841	2744
275.901	3744
275.961	2516
276.021	2592
276.081	5458
276.140	16218
276.200	6927
276.260	5058
276.320	2973
276.380	4357
276.440	2177
276.499	1838
276.559	1685
276.619	4381
276.679	10770
276.738	8554
276.798	4694
276.858	4943
276.918	3610
276.978	2640
277.037	2969
277.097	4787
277.157	14184
277.216	5985
277.276	2899
277.336	2689
277.395	3478
277.455	3173
277.515	4429
277.574	21943
277.634	36595
277.694	11297
277.753	40253
277.813	28392
277.873	28110
277.932	85747
