'Start Wavelength	183.833
'End Wavelength	1047.133
'Gate Delay	5.000
'Gate Width (ms)	1.050
'Laser Output Level	0.000
'X Position	0.000
'Y Position	0.000
'Z Position	0.000
'Grid Point Number	1.000
'Shot Number	100.000
183.833	556.000
183.903	33.000
183.973	466
184.042	146
184.112	17
184.182	-647
184.252	159
184.321	-2
184.391	316
184.461	455
184.531	-141
184.600	153
184.670	60
184.740	302
184.809	258
184.879	-265
184.949	193
185.018	-70
185.088	-63
185.158	282
185.228	226
185.297	272
185.367	-527
185.436	-574
185.506	41
185.576	-476
185.645	1116
185.715	319
185.785	973
185.854	491
185.924	443
185.993	-606
186.063	21
186.133	-375
186.202	479
186.272	-285
186.341	-333
186.411	-289
186.481	595
186.550	710
186.620	568
186.689	-163
186.759	1066
186.828	-571
186.898	-83
186.967	746
187.037	731
187.106	55
187.176	300
187.246	470
187.315	-103
187.385	357
187.454	494
187.524	715
187.593	644
187.662	400
187.732	313
187.801	412
187.871	954
187.940	56
188.010	130
188.079	7
188.149	895
188.218	638
188.288	500
188.357	5
188.426	-64
188.496	492
188.565	624
188.635	56
188.704	1262
188.773	395
188.843	846
188.912	187
188.981	256
189.051	76
189.120	-583
189.190	306
189.259	84
189.328	-364
189.398	726
189.467	159
189.536	694
189.606	883
189.675	-75
189.744	54
189.813	-81
189.883	204
189.952	1256
190.021	1956
190.091	2347
190.160	170
190.229	306
190.298	-467
190.368	-174
190.437	213
190.506	1031
190.575	-130
190.645	-428
190.714	-148
190.783	522
190.852	-475
190.922	932
190.991	-21
191.060	502
191.129	-255
191.198	102
191.268	24
191.337	242
191.406	433
191.475	140
191.544	183
191.613	615
191.683	-544
191.752	266
191.821	-158
191.890	-42
191.959	103
192.028	1010
192.097	-126
192.166	663
192.236	189
192.305	6
192.374	429
192.443	300
192.512	-527
192.581	193
192.650	-31
192.719	603
192.788	-402
192.857	389
192.926	417
192.995	198
193.064	661
193.133	346
193.202	502
193.271	581
193.340	-35
193.409	1034
193.478	729
193.547	1194
193.616	1300
193.685	1112
193.754	889
193.823	678
193.892	248
193.961	367
194.030	-193
194.099	512
194.168	-451
194.237	432
194.306	13
194.375	-414
194.444	1048
194.513	420
194.582	62
194.651	719
194.720	156
194.788	666
194.857	537
194.926	602
194.995	752
195.064	609
195.133	178
195.202	1045
195.270	295
195.339	-96
195.408	276
195.477	136
195.546	823
195.615	138
195.683	1370
195.752	285
195.821	7
195.890	1165
195.959	1096
196.027	647
196.096	824
196.165	-1
196.234	784
196.303	674
196.371	-236
196.440	932
196.509	454
196.578	728
196.646	-594
196.715	415
196.784	140
196.853	936
196.921	261
196.990	441
197.059	271
197.127	708
197.196	438
197.265	546
197.333	-205
197.402	445
197.471	-309
197.539	640
197.608	1173
197.677	3389
197.745	479
197.814	2954
197.883	1707
197.951	2874
198.020	1296
198.088	716
198.157	1210
198.226	3539
198.294	554
198.363	586
198.431	272
198.500	2633
198.569	2519
198.637	563
198.706	807
198.774	3901
198.843	2489
198.911	407
198.980	579
199.048	499
199.117	698
199.185	316
199.254	399
199.322	487
199.391	504
199.459	-123
199.528	616
199.596	669
199.665	-22
199.733	1353
199.802	894
199.870	664
199.939	83
200.007	425
200.076	983
200.144	543
200.213	-718
200.281	1144
200.349	900
200.418	1394
200.486	320
200.555	978
200.623	-43
200.691	189
200.760	436
200.828	727
200.897	204
200.965	-202
201.033	103
201.102	1073
201.170	-343
201.238	865
201.307	821
201.375	446
201.443	640
201.512	705
201.580	859
201.648	666
201.716	271
201.785	1295
201.853	831
201.921	770
201.990	540
202.058	414
202.126	-349
202.194	589
202.263	754
202.331	286
202.399	11
202.467	786
202.536	5462
202.604	2643
202.672	167
202.740	326
202.808	368
202.877	857
202.945	1031
203.013	456
203.081	341
203.149	56
203.218	94
203.286	538
203.354	361
203.422	227
203.490	-143
203.558	959
203.626	203
203.695	-219
203.763	490
203.831	-157
203.899	888
203.967	798
204.035	554
204.103	-90
204.171	537
204.239	588
204.307	1059
204.375	324
204.443	-327
204.512	154
204.580	790
204.648	325
204.716	440
204.784	551
204.852	725
204.920	821
204.988	657
205.056	532
205.124	-26
205.192	682
205.260	-85
205.328	644
205.396	7
205.464	766
205.532	861
205.600	840
205.667	339
205.735	3130
205.803	4507
205.871	161
205.939	1195
206.007	867
206.075	328
206.143	362
206.211	478
206.279	287
206.347	-402
206.414	685
206.482	-234
206.550	157
206.618	513
206.686	489
206.754	1281
206.822	714
206.889	61
206.957	653
207.025	721
207.093	297
207.161	149
207.229	471
207.296	537
207.364	442
207.432	397
207.500	664
207.567	97
207.635	805
207.703	287
207.771	249
207.839	28
207.906	1103
207.974	25
208.042	615
208.109	396
208.177	1257
208.245	1494
208.313	1061
208.380	2630
208.448	1182
208.516	47
208.583	1856
208.651	982
208.719	356
208.786	284
208.854	1013
208.922	510
208.989	883
209.057	1
209.125	1166
209.192	85
209.260	668
209.327	1115
209.395	1662
209.463	272
209.530	69
209.598	323
209.665	540
209.733	745
209.801	1473
209.868	811
209.936	864
210.003	816
210.071	980
210.138	288
210.206	1687
210.273	574
210.341	1289
210.408	676
210.476	927
210.543	1380
210.611	1252
210.678	572
210.746	845
210.813	1211
210.881	1629
210.948	546
211.016	1264
211.083	921
211.151	876
211.218	1928
211.285	856
211.353	657
211.420	1587
211.488	581
211.555	1345
211.622	-118
211.690	825
211.757	696
211.825	1537
211.892	877
211.959	869
212.027	1343
212.094	1546
212.161	1169
212.229	3031
212.296	5511
212.363	18923
212.431	5837
212.498	2327
212.565	1508
212.633	280
212.700	1006
212.767	875
212.835	539
212.902	825
212.969	659
213.036	1056
213.104	1001
213.171	1068
213.238	1071
213.305	1291
213.373	1280
213.440	691
213.507	596
213.574	1323
213.641	592
213.709	-116
213.776	1429
213.843	1330
213.910	1500
213.977	1002
214.045	953
214.112	1277
214.179	365
214.246	565
214.313	767
214.380	741
214.447	1618
214.515	1263
214.582	1110
214.649	1219
214.716	695
214.783	706
214.850	1002
214.917	1834
214.984	2367
215.051	1969
215.118	1591
215.185	992
215.253	1200
215.320	1294
215.387	842
215.454	837
215.521	-127
215.588	317
215.655	463
215.722	2472
215.789	1122
215.856	1084
215.923	1415
215.990	1906
216.057	1525
216.124	1733
216.191	896
216.258	1414
216.325	829
216.391	2063
216.458	1095
216.525	1739
216.592	4477
216.659	3923
216.726	2251
216.793	2551
216.860	2068
216.927	1511
216.994	683
217.061	2401
217.127	704
217.194	2441
217.261	3055
217.328	4029
217.395	2749
217.462	1594
217.529	533
217.595	70
217.662	2096
217.729	5039
217.796	2990
217.863	1465
217.929	845
217.996	364
218.063	680
218.130	194
218.196	170
218.263	770
218.330	645
218.397	-74
218.463	1204
218.530	1887
218.597	4685
218.664	4924
218.730	1890
218.797	1339
218.864	984
218.930	587
218.997	106
219.064	2365
219.131	3730
219.197	1998
219.264	44
219.331	781
219.397	-284
219.464	426
219.530	3055
219.597	1909
219.664	638
219.730	1220
219.797	569
219.864	890
219.930	2252
219.997	6014
220.063	2927
220.130	1614
220.196	653
220.263	1628
220.330	2552
220.396	6543
220.463	3027
220.529	1305
220.596	1829
220.662	2590
220.729	9673
220.795	6003
220.862	5570
220.928	12852
220.995	13216
221.061	12945
221.128	9848
221.194	3075
221.261	1662
221.327	1654
221.394	1436
221.460	1101
221.526	1889
221.593	14006
221.659	6449
221.726	8429
221.792	5462
221.859	2090
221.925	1629
221.991	1809
222.058	978
222.124	2603
222.190	1970
222.257	936
222.323	388
222.390	1025
222.456	163
222.522	427
222.589	776
222.655	971
222.721	949
222.788	1310
222.854	353
222.920	653
222.986	551
223.053	668
223.119	756
223.185	476
223.251	-122
223.318	587
223.384	38
223.450	621
223.516	372
223.583	68
223.649	601
223.715	542
223.781	379
223.848	609
223.914	139
223.980	883
224.046	159
224.112	316
224.178	952
224.245	642
224.311	556
224.377	572
224.443	143
224.509	737
224.575	-49
224.641	151
224.708	94
224.774	239
224.840	848
224.906	1193
224.972	163
225.038	990
225.104	1066
225.170	488
225.236	521
225.302	1100
225.368	989
225.434	872
225.500	1186
225.566	1123
225.632	987
225.699	1419
225.765	1544
225.831	2122
225.897	3051
225.963	2169
226.028	1647
226.094	1666
226.160	2637
226.226	8326
226.292	15983
226.358	6181
226.424	3326
226.490	2238
226.556	1231
226.622	2415
226.688	3643
226.754	5540
226.820	24319
226.886	18705
226.951	4438
227.017	3052
227.083	2511
227.149	2785
227.215	1193
227.281	1081
227.347	1902
227.412	2121
227.478	5979
227.544	6039
227.610	2478
227.676	1387
227.742	1125
227.807	1206
227.873	1414
227.939	1801
228.005	1060
228.070	421
228.136	35
228.202	935
228.268	1600
228.333	3090
228.399	1912
228.465	487
228.531	-214
228.596	1409
228.662	3113
228.728	1598
228.793	1191
228.859	586
228.925	1066
228.990	615
229.056	909
229.122	1318
229.187	1096
229.253	1140
229.319	773
229.384	2160
229.450	110
229.516	501
229.581	1766
229.647	2235
229.712	6961
229.778	6751
229.844	2633
229.909	2963
229.975	2966
230.040	1909
230.106	2564
230.171	2224
230.237	4102
230.302	3853
230.368	1770
230.433	1356
230.499	1403
230.564	906
230.630	747
230.695	875
230.761	-107
230.826	3594
230.892	1264
230.957	934
231.023	1068
231.088	1391
231.154	1232
231.219	2997
231.285	2890
231.350	646
231.415	639
231.481	1568
231.546	809
231.612	1054
231.677	519
231.742	1649
231.808	1508
231.873	894
231.938	3834
232.004	3694
232.069	1059
232.135	1392
232.200	607
232.265	1935
232.330	887
232.396	1423
232.461	1058
232.526	1087
232.592	2146
232.657	4047
232.722	2739
232.788	2200
232.853	1026
232.918	1460
232.983	1215
233.048	3453
233.114	2925
233.179	5940
233.244	6290
233.309	2483
233.375	1023
233.440	1594
233.505	1073
233.570	1794
233.635	583
233.700	4480
233.766	4259
233.831	2614
233.896	2187
233.961	2676
234.026	1703
234.091	2375
234.156	2414
234.222	4268
234.287	15275
234.352	11281
234.417	5921
234.482	4377
234.547	2957
234.612	2903
234.677	3487
234.742	14186
234.807	7629
234.872	3100
234.937	2476
235.002	2301
235.067	2303
235.132	2613
235.197	1859
235.262	1495
235.327	2221
235.392	3281
235.457	2703
235.522	1932
235.587	1638
235.652	1689
235.717	3036
235.782	3121
235.847	7069
235.912	7964
235.977	7984
236.042	3194
236.107	3656
236.172	3321
236.236	2016
236.301	3015
236.366	5474
236.431	9116
236.496	4363
236.561	7557
236.626	34274
236.691	19954
236.755	7068
236.820	6340
236.885	4380
236.950	3781
237.015	4069
237.079	5008
237.144	8708
237.209	35403
237.274	58804
237.339	19940
237.403	7763
237.468	6713
237.533	4540
237.598	3739
237.662	2480
237.727	4217
237.792	6977
237.856	6920
237.921	3430
237.986	7059
238.050	6656
238.115	21411
238.180	16297
238.245	9080
238.309	5468
238.374	4509
238.438	4451
238.503	2816
238.568	3345
238.632	3498
238.697	2396
238.762	9706
238.826	10164
238.891	6329
238.955	4644
239.020	3542
239.085	3157
239.149	2319
239.214	3216
239.278	3022
239.343	2357
239.407	4702
239.472	20648
239.536	14323
239.601	4968
239.665	3202
239.730	5269
239.794	14182
239.859	16911
239.923	6060
239.988	3364
240.052	2159
240.117	3076
240.181	2207
240.246	2694
240.310	2863
240.374	12018
240.439	18668
240.503	5364
240.568	10195
240.632	10172
240.696	3899
240.761	1662
240.825	1384
240.890	3144
240.954	11718
241.018	17742
241.083	7644
241.147	2934
241.211	5242
241.276	9809
241.340	4735
241.404	2546
241.469	3962
241.533	2528
241.597	2673
241.661	2941
241.726	3831
241.790	2709
241.854	2812
241.919	2531
241.983	2639
242.047	2142
242.111	2485
242.175	2167
242.240	3272
242.304	2583
242.368	2988
242.432	2426
242.496	2556
242.561	1732
242.625	2336
242.689	1551
242.753	2561
242.817	2448
242.881	2495
242.946	2961
243.010	2895
243.074	2727
243.138	2229
243.202	2570
243.266	3123
243.330	3884
243.394	19172
243.458	50890
243.522	12782
243.586	5944
243.651	3256
243.715	3698
243.779	5879
243.843	7738
243.907	9531
243.971	4874
244.035	3494
244.099	2275
244.163	4317
244.227	6920
244.291	6496
244.355	4258
244.419	4073
244.483	2842
244.546	2070
244.610	2103
244.674	4188
244.738	2713
244.802	3052
244.866	1775
244.930	1644
244.994	1374
245.058	3708
245.122	4620
245.186	4225
245.249	3686
245.313	3139
245.377	2549
245.441	2360
245.505	3026
245.569	3991
245.632	3336
245.696	10353
245.760	5099
245.824	3609
245.888	2220
245.951	3386
246.015	3838
246.079	4942
246.143	15465
246.207	24723
246.270	8477
246.334	5295
246.398	5822
246.461	8643
246.525	5442
246.589	4645
246.653	4472
246.716	5221
246.780	5630
246.844	7970
246.907	4077
246.971	3504
247.035	4202
247.098	4481
247.162	14246
247.226	36281
247.289	12621
247.353	6533
247.416	10217
247.480	6194
247.544	4913
247.607	5965
247.671	3725
247.734	4520
247.798	5077
247.861	14954
247.925	30283
247.989	8679
248.052	4273
248.116	6079
248.179	10151
248.243	55536
248.306	46608
248.370	32976
248.433	10260
248.497	8428
248.560	11170
248.624	13745
248.687	21610
248.751	55387
248.814	23592
248.877	27833
248.941	39226
249.004	68152
249.068	50501
249.131	16475
249.194	9882
249.258	13479
249.321	9173
249.385	7008
249.448	6051
249.511	8252
249.575	11826
249.638	8261
249.701	6157
249.765	6575
249.828	7626
249.891	6550
249.955	6168
250.018	23067
250.081	25060
250.145	10691
250.208	7895
250.271	8857
250.334	7033
250.398	6160
250.461	8086
250.524	12747
250.587	64230
250.651	89798
250.714	25476
250.777	15208
250.840	9628
250.903	9463
250.967	17050
251.030	34422
251.093	14729
251.156	14067
251.219	11243
251.282	17239
251.345	89459
251.409	67531
251.472	40500
251.535	161225
251.598	85754
251.661	29647
251.724	41652
251.787	41701
251.850	101095
251.913	43818
251.976	16452
252.039	13016
252.103	12987
252.166	26352
252.229	62614
252.292	59777
252.355	132448
252.418	44110
252.481	21238
252.544	14957
252.607	16469
252.670	49414
252.733	57782
252.796	127286
252.858	68057
252.921	34284
252.984	18851
253.047	13533
253.110	10615
253.173	16437
253.236	11110
253.299	13336
253.362	10899
253.425	12483
253.488	30913
253.550	16808
253.613	17660
253.676	16590
253.739	7890
253.802	12044
253.865	8997
253.928	8775
253.990	21143
254.053	31582
254.116	19115
254.179	15163
254.242	8115
254.304	15332
254.367	15165
254.430	13426
254.493	20965
254.555	34072
254.618	14671
254.681	9175
254.743	7558
254.806	8579
254.869	25369
254.932	22875
254.994	8587
255.057	7333
255.120	4350
255.182	4092
255.245	5559
255.308	3607
255.370	3311
255.433	4099
255.496	3394
255.558	3726
255.621	3927
255.683	2555
255.746	3234
255.809	2795
255.871	3095
255.934	2851
255.996	3329
256.059	2968
256.121	5594
256.184	15082
256.246	9596
256.309	9359
256.371	6052
256.434	4458
256.496	3589
256.559	4227
256.621	6874
256.684	18657
256.746	45185
256.809	13250
256.871	6143
256.934	6169
256.996	6258
257.059	5179
257.121	3762
257.183	4004
257.246	3706
257.308	4415
257.371	11328
257.433	66197
257.495	53419
257.558	39895
257.620	17008
257.683	8931
257.745	9230
257.807	5002
257.870	4992
257.932	4081
257.994	3344
258.056	4020
258.119	5872
258.181	10956
258.243	6284
258.306	6132
258.368	18308
258.430	15244
258.492	23941
258.555	26982
258.617	6265
258.679	7049
258.741	9042
258.803	5773
258.866	4200
258.928	4883
258.990	4535
259.052	6580
259.114	7839
259.177	6190
259.239	8085
259.301	28567
259.363	13420
259.425	6004
259.487	5077
259.549	5162
259.611	4646
259.674	6188
259.736	23152
259.798	36618
259.860	60049
259.922	38608
259.984	10331
260.046	6808
260.108	5488
260.170	5566
260.232	4273
260.294	5737
260.356	4004
260.418	6662
260.480	20834
260.542	18417
260.604	31105
260.666	36812
260.728	9596
260.790	8675
260.852	6056
260.914	6116
260.976	6026
261.038	7847
261.100	35994
261.161	28804
261.223	8153
261.285	19898
261.347	23455
261.409	7375
261.471	6238
261.533	4407
261.595	5237
261.656	11933
261.718	24534
261.780	9439
261.842	6375
261.904	5785
261.966	5765
262.027	5440
262.089	9903
262.151	7398
262.213	4698
262.274	13284
262.336	9565
262.398	5643
262.460	12722
262.521	24242
262.583	7812
262.645	5154
262.706	8153
262.768	23876
262.830	9522
262.892	6512
262.953	7382
263.015	44437
263.077	90881
263.138	23878
263.200	11790
263.261	6963
263.323	4912
263.385	4443
263.446	4556
263.508	11775
263.569	6370
263.631	3163
263.693	2007
263.754	2831
263.816	1776
263.877	2231
263.939	1559
264.000	2778
264.062	4525
264.123	3488
264.185	1832
264.246	2065
264.308	6056
264.369	8247
264.431	2537
264.492	2110
264.554	2429
264.615	4034
264.677	2898
264.738	2731
264.800	1559
264.861	1545
264.922	925
264.984	1863
265.045	1610
265.107	3215
265.168	21617
265.229	14540
265.291	3698
265.352	2874
265.413	2240
265.475	1157
265.536	2148
265.597	1902
265.659	224
265.720	1921
265.781	1382
265.843	1074
265.904	5350
265.965	39261
266.026	20750
266.088	6094
266.149	4709
266.210	1917
266.271	1562
266.333	2180
266.394	2301
266.455	1992
266.516	1242
266.577	6690
266.639	9083
266.700	2993
266.761	1568
266.822	1841
266.883	1768
266.944	1560
267.005	2971
267.067	1791
267.128	892
267.189	1644
267.250	2807
267.311	1821
267.372	514
267.433	1586
267.494	1194
267.555	1333
267.616	228
267.677	1043
267.738	922
267.799	6860
267.860	13072
267.921	3489
267.982	2929
268.043	1777
268.104	2478
268.165	2180
268.226	591
268.287	1422
268.348	2146
268.409	2655
268.470	1536
268.531	1347
268.592	366
268.653	1243
268.714	1634
268.775	2713
268.836	7861
268.896	9247
268.957	3218
269.018	1187
269.079	1715
269.140	1254
269.201	2595
269.262	1667
269.322	1351
269.383	2193
269.444	3141
269.505	4169
269.565	5382
269.626	2976
269.687	2106
269.748	1814
269.809	3244
269.869	4523
269.930	1633
269.991	1573
270.051	1653
270.112	2285
270.173	1356
270.234	1593
270.294	2195
270.355	2994
270.416	894
270.476	2662
270.537	6114
270.598	13902
270.658	4765
270.719	2530
270.779	4420
270.840	3712
270.901	2745
270.961	3311
271.022	3487
271.082	6396
271.143	6510
271.203	3685
271.264	2907
271.325	4507
271.385	16072
271.446	6740
271.506	3663
271.567	4138
271.627	3156
271.688	4254
271.748	11419
271.809	54841
271.869	72348
271.930	17382
271.990	35143
272.050	63042
272.111	15206
272.171	8345
272.232	10763
272.292	45595
272.352	19973
272.413	12853
272.473	9901
272.534	11370
272.594	7503
272.654	11297
272.715	21401
272.775	8231
272.835	6292
272.896	5288
272.956	4478
273.016	9223
273.077	6347
273.137	5267
273.197	5548
273.257	25405
273.318	49404
273.378	16218
273.438	17658
273.498	36942
273.559	15253
273.619	30361
273.679	63498
273.739	20070
273.799	11256
273.860	34377
273.920	63920
273.980	14218
274.040	9265
274.100	13442
274.160	69033
274.221	58359
274.281	48021
274.341	47071
274.401	26379
274.461	11979
274.521	12387
274.581	54868
274.641	71871
274.701	25292
274.761	12111
274.821	30236
274.882	104897
274.942	81843
275.002	40050
275.062	14809
275.122	9425
275.182	8489
275.242	10986
275.302	16878
275.362	13298
275.421	10828
275.481	42981
275.541	92238
275.601	40529
275.661	18980
275.721	11336
275.781	6888
275.841	5152
275.901	7109
275.961	6006
276.021	5643
276.081	10785
276.140	27459
276.200	11133
276.260	8696
276.320	6118
276.380	7004
276.440	4422
276.499	4431
276.559	4125
276.619	7161
276.679	20389
276.738	15556
276.798	6447
