'Start Wavelength	183.833
'End Wavelength	1047.133
'Gate Delay	5.000
'Gate Width (ms)	1.050
'Laser Output Level	0.000
'X Position	0.000
'Y Position	0.000
'Z Position	0.000
'Grid Point Number	1.000
'Shot Number	100.000
183.833	128.000
183.903	424.000
183.973	272
184.042	379
184.112	-133
184.182	-78
184.252	430
184.321	-224
184.391	895
184.461	-381
184.531	-235
184.600	276
184.670	-22
184.740	-21
184.809	327
184.879	-98
184.949	259
185.018	-50
185.088	281
185.158	411
185.228	-164
185.297	524
185.367	74
185.436	-206
185.506	-1
185.576	262
185.645	477
185.715	-5
185.785	279
185.854	262
185.924	305
185.993	-1080
186.063	-159
186.133	264
186.202	199
186.272	-489
186.341	407
186.411	-525
186.481	410
186.550	894
186.620	581
186.689	415
186.759	882
186.828	126
186.898	107
186.967	597
187.037	1325
187.106	147
187.176	-31
187.246	447
187.315	137
187.385	90
187.454	204
187.524	294
187.593	5
187.662	-102
187.732	241
187.801	707
187.871	1099
187.940	395
188.010	-371
188.079	734
188.149	1242
188.218	484
188.288	194
188.357	616
188.426	-140
188.496	12
188.565	33
188.635	-199
188.704	-764
188.773	-245
188.843	350
188.912	168
188.981	161
189.051	52
189.120	-121
189.190	39
189.259	1039
189.328	115
189.398	509
189.467	49
189.536	70
189.606	730
189.675	787
189.744	550
189.813	564
189.883	705
189.952	728
190.021	2023
190.091	2603
190.160	880
190.229	676
190.298	153
190.368	-581
190.437	717
190.506	188
190.575	197
190.645	-181
190.714	169
190.783	235
190.852	87
190.922	-118
190.991	253
191.060	349
191.129	196
191.198	482
191.268	489
191.337	914
191.406	-123
191.475	-310
191.544	258
191.613	-312
191.683	269
191.752	393
191.821	537
191.890	313
191.959	372
192.028	1123
192.097	169
192.166	28
192.236	400
192.305	-420
192.374	581
192.443	137
192.512	421
192.581	800
192.650	661
192.719	-51
192.788	-275
192.857	254
192.926	930
192.995	425
193.064	751
193.133	823
193.202	1442
193.271	1405
193.340	1138
193.409	1190
193.478	1046
193.547	2032
193.616	2141
193.685	920
193.754	668
193.823	317
193.892	448
193.961	801
194.030	998
194.099	-273
194.168	197
194.237	1008
194.306	184
194.375	-177
194.444	648
194.513	676
194.582	1350
194.651	1531
194.720	50
194.788	682
194.857	316
194.926	650
194.995	76
195.064	442
195.133	936
195.202	1286
195.270	835
195.339	816
195.408	525
195.477	369
195.546	422
195.615	11
195.683	1257
195.752	800
195.821	128
195.890	1442
195.959	1113
196.027	1472
196.096	692
196.165	1229
196.234	605
196.303	720
196.371	752
196.440	758
196.509	593
196.578	380
196.646	37
196.715	886
196.784	82
196.853	842
196.921	1058
196.990	1168
197.059	265
197.127	374
197.196	-59
197.265	1346
197.333	558
197.402	1159
197.471	708
197.539	614
197.608	1351
197.677	2376
197.745	1294
197.814	3044
197.883	1900
197.951	2435
198.020	1742
198.088	598
198.157	1274
198.226	3895
198.294	905
198.363	315
198.431	627
198.500	2374
198.569	3086
198.637	1432
198.706	1476
198.774	4705
198.843	3371
198.911	530
198.980	389
199.048	172
199.117	721
199.185	370
199.254	409
199.322	733
199.391	691
199.459	7
199.528	7
199.596	222
199.665	1014
199.733	799
199.802	516
199.870	769
199.939	-329
200.007	647
200.076	848
200.144	-67
200.213	-33
200.281	643
200.349	904
200.418	1422
200.486	279
200.555	379
200.623	740
200.691	803
200.760	476
200.828	730
200.897	50
200.965	520
201.033	-123
201.102	329
201.170	248
201.238	28
201.307	-65
201.375	377
201.443	617
201.512	551
201.580	902
201.648	204
201.716	-71
201.785	311
201.853	570
201.921	-279
201.990	851
202.058	47
202.126	175
202.194	310
202.263	202
202.331	514
202.399	28
202.467	218
202.536	3998
202.604	1163
202.672	321
202.740	965
202.808	429
202.877	625
202.945	404
203.013	-694
203.081	736
203.149	277
203.218	-31
203.286	295
203.354	-61
203.422	152
203.490	143
203.558	541
203.626	717
203.695	375
203.763	554
203.831	969
203.899	959
203.967	674
204.035	903
204.103	825
204.171	372
204.239	581
204.307	577
204.375	320
204.443	312
204.512	545
204.580	726
204.648	-195
204.716	220
204.784	699
204.852	1073
204.920	69
204.988	45
205.056	1178
205.124	428
205.192	286
205.260	616
205.328	246
205.396	487
205.464	976
205.532	-89
205.600	270
205.667	-467
205.735	4284
205.803	5011
205.871	494
205.939	1028
206.007	282
206.075	863
206.143	433
206.211	814
206.279	255
206.347	513
206.414	773
206.482	571
206.550	487
206.618	1090
206.686	357
206.754	1325
206.822	1722
206.889	72
206.957	798
207.025	350
207.093	603
207.161	96
207.229	221
207.296	1352
207.364	285
207.432	483
207.500	785
207.567	586
207.635	281
207.703	557
207.771	424
207.839	305
207.906	777
207.974	679
208.042	586
208.109	1012
208.177	1484
208.245	2075
208.313	780
208.380	2814
208.448	1805
208.516	641
208.583	1711
208.651	1793
208.719	721
208.786	380
208.854	1207
208.922	721
208.989	1269
209.057	1440
209.125	244
209.192	793
209.260	880
209.327	1455
209.395	1270
209.463	888
209.530	1031
209.598	522
209.665	745
209.733	1168
209.801	604
209.868	925
209.936	1230
210.003	1030
210.071	957
210.138	1481
210.206	1292
210.273	824
210.341	1350
210.408	365
210.476	825
210.543	1346
210.611	2101
210.678	367
210.746	970
210.813	1028
210.881	1581
210.948	619
211.016	2276
211.083	987
211.151	813
211.218	2072
211.285	1096
211.353	1323
211.420	1078
211.488	607
211.555	958
211.622	270
211.690	1008
211.757	706
211.825	1235
211.892	1084
211.959	1215
212.027	609
212.094	1456
212.161	1043
212.229	3354
212.296	6930
212.363	21156
212.431	7860
212.498	2510
212.565	1565
212.633	1312
212.700	1691
212.767	1823
212.835	1817
212.902	1668
212.969	674
213.036	927
213.104	1319
213.171	1467
213.238	1055
213.305	1231
213.373	689
213.440	1477
213.507	1743
213.574	2496
213.641	481
213.709	803
213.776	1823
213.843	1153
213.910	1963
213.977	698
214.045	506
214.112	670
214.179	644
214.246	954
214.313	1466
214.380	995
214.447	2122
214.515	1926
214.582	1110
214.649	1313
214.716	917
214.783	710
214.850	1955
214.917	2064
214.984	2635
215.051	2749
215.118	1369
215.185	1456
215.253	1458
215.320	798
215.387	877
215.454	1049
215.521	542
215.588	755
215.655	1129
215.722	1562
215.789	973
215.856	1345
215.923	815
215.990	550
216.057	790
216.124	1105
216.191	1144
216.258	408
216.325	1497
216.391	1203
216.458	708
216.525	1734
216.592	5174
216.659	5337
216.726	2686
216.793	3249
216.860	1918
216.927	1547
216.994	1653
217.061	2436
217.127	1099
217.194	2808
217.261	4177
217.328	5318
217.395	3640
217.462	1877
217.529	1254
217.595	1004
217.662	1407
217.729	4998
217.796	3769
217.863	1105
217.929	1117
217.996	1425
218.063	948
218.130	437
218.196	879
218.263	293
218.330	604
218.397	1423
218.463	801
218.530	1798
218.597	4811
218.664	4675
218.730	1584
218.797	811
218.864	359
218.930	1506
218.997	783
219.064	1404
219.131	4763
219.197	1928
219.264	1000
219.331	752
219.397	632
219.464	884
219.530	3598
219.597	1720
219.664	7
219.730	1433
219.797	-226
219.864	68
219.930	1793
219.997	5872
220.063	2727
220.130	1316
220.196	1727
220.263	2152
220.330	5087
220.396	9270
220.463	3887
220.529	2825
220.596	2258
220.662	2889
220.729	11675
220.795	6779
220.862	8279
220.928	16876
220.995	17069
221.061	15976
221.128	12086
221.194	3921
221.261	2107
221.327	1353
221.394	1109
221.460	1800
221.526	2468
221.593	15415
221.659	8882
221.726	9671
221.792	7330
221.859	2535
221.925	1598
221.991	2010
222.058	837
222.124	2304
222.190	1431
222.257	1109
222.323	793
222.390	1065
222.456	359
222.522	83
222.589	687
222.655	166
222.721	432
222.788	975
222.854	557
222.920	555
222.986	196
223.053	650
223.119	883
223.185	-345
223.251	26
223.318	155
223.384	868
223.450	-414
223.516	-1
223.583	180
223.649	804
223.715	-22
223.781	102
223.848	-396
223.914	73
223.980	476
224.046	469
224.112	-113
224.178	-16
224.245	-116
224.311	340
224.377	905
224.443	382
224.509	647
224.575	397
224.641	193
224.708	195
224.774	750
224.840	1288
224.906	220
224.972	489
225.038	420
225.104	-245
225.170	461
225.236	461
225.302	446
225.368	782
225.434	482
225.500	186
225.566	400
225.632	569
225.699	1095
225.765	1594
225.831	1451
225.897	3287
225.963	1739
226.028	917
226.094	1565
226.160	2283
226.226	10369
226.292	24330
226.358	8635
226.424	4404
226.490	2848
226.556	1468
226.622	2588
226.688	4298
226.754	7541
226.820	33112
226.886	28373
226.951	6763
227.017	3744
227.083	2854
227.149	2475
227.215	1323
227.281	804
227.347	1703
227.412	1063
227.478	5027
227.544	5504
227.610	2483
227.676	1328
227.742	688
227.807	1046
227.873	984
227.939	2198
228.005	1082
228.070	858
228.136	619
228.202	669
228.268	1753
228.333	2163
228.399	671
228.465	986
228.531	-218
228.596	594
228.662	2854
228.728	1236
228.793	647
228.859	194
228.925	1816
228.990	901
229.056	1151
229.122	649
229.187	1415
229.253	845
229.319	1165
229.384	1926
229.450	397
229.516	268
229.581	1596
229.647	1229
229.712	6826
229.778	7226
229.844	2863
229.909	2491
229.975	1698
230.040	831
230.106	1687
230.171	1760
230.237	4014
230.302	3110
230.368	1591
230.433	1400
230.499	1224
230.564	395
230.630	1059
230.695	42
230.761	495
230.826	3427
230.892	1899
230.957	57
231.023	69
231.088	614
231.154	439
231.219	2704
231.285	2243
231.350	405
231.415	-27
231.481	622
231.546	747
231.612	1008
231.677	952
231.742	843
231.808	436
231.873	-264
231.938	3277
232.004	3094
232.069	878
232.135	132
232.200	651
232.265	366
232.330	-172
232.396	400
232.461	295
232.526	1141
232.592	1305
232.657	2667
232.722	2604
232.788	884
232.853	426
232.918	821
232.983	525
233.048	3317
233.114	1863
233.179	5394
233.244	6891
233.309	1016
233.375	1195
233.440	744
233.505	937
233.570	161
233.635	1002
233.700	3042
233.766	4759
233.831	1581
233.896	1382
233.961	1973
234.026	1212
234.091	1340
234.156	1242
234.222	3865
234.287	14188
234.352	12197
234.417	5558
234.482	2785
234.547	2279
234.612	2089
234.677	3183
234.742	13185
234.807	7248
234.872	2435
234.937	1970
235.002	1422
235.067	1037
235.132	1391
235.197	1261
235.262	585
235.327	1691
235.392	2342
235.457	2090
235.522	1430
235.587	1604
235.652	941
235.717	1457
235.782	2561
235.847	5994
235.912	8135
235.977	8389
236.042	3159
236.107	2395
236.172	3044
236.236	1532
236.301	2000
236.366	4462
236.431	8056
236.496	3697
236.561	8923
236.626	45880
236.691	28764
236.755	9445
236.820	7265
236.885	5550
236.950	3651
237.015	4249
237.079	4745
237.144	11100
237.209	44915
237.274	79816
237.339	26602
237.403	9193
237.468	7411
237.533	4981
237.598	3053
237.662	1912
237.727	4485
237.792	8201
237.856	6320
237.921	3198
237.986	5821
238.050	6669
238.115	21697
238.180	17983
238.245	7871
238.309	4281
238.374	2872
238.438	3679
238.503	1397
238.568	2492
238.632	1958
238.697	2236
238.762	8210
238.826	10817
238.891	4649
238.955	3684
239.020	2054
239.085	3142
239.149	1444
239.214	1623
239.278	1436
239.343	1140
239.407	2950
239.472	20594
239.536	16613
239.601	3955
239.665	2314
239.730	3015
239.794	9597
239.859	15241
239.923	5928
239.988	2595
240.052	2635
240.117	836
240.181	2030
240.246	1646
240.310	2327
240.374	10841
240.439	19579
240.503	5914
240.568	9080
240.632	9692
240.696	3038
240.761	2011
240.825	1159
240.890	1907
240.954	10565
241.018	17926
241.083	7578
241.147	2671
241.211	4592
241.276	8882
241.340	3119
241.404	1667
241.469	1688
241.533	1697
241.597	2277
241.661	1410
241.726	2303
241.790	1176
241.854	1929
241.919	1308
241.983	1593
242.047	670
242.111	1680
242.175	512
242.240	1185
242.304	2058
242.368	2392
242.432	1106
242.496	829
242.561	1601
242.625	1582
242.689	885
242.753	860
242.817	1724
242.881	2198
242.946	1695
243.010	2018
243.074	1531
243.138	1480
243.202	1214
243.266	985
243.330	2832
243.394	19185
243.458	56804
243.522	14702
243.586	4744
243.651	3575
243.715	2235
243.779	5424
243.843	7658
243.907	8699
243.971	4938
244.035	2866
244.099	1733
244.163	3505
244.227	5855
244.291	5731
244.355	2892
244.419	2430
244.483	2024
244.546	1727
244.610	1151
244.674	3106
244.738	2875
244.802	1199
244.866	1398
244.930	884
244.994	1440
245.058	1955
245.122	5142
245.186	3202
245.249	2448
245.313	2346
245.377	2323
245.441	1142
245.505	2087
245.569	2379
245.632	2934
245.696	8714
245.760	3626
245.824	2551
245.888	1282
245.951	2501
246.015	1890
246.079	3898
246.143	14417
246.207	27040
246.270	8951
246.334	4773
246.398	5210
246.461	8547
246.525	5299
246.589	3860
246.653	3548
246.716	4254
246.780	4956
246.844	6868
246.907	2676
246.971	2820
247.035	2537
247.098	3241
247.162	12870
247.226	37827
247.289	13563
247.353	5975
247.416	9556
247.480	5436
247.544	4749
247.607	4920
247.671	2782
247.734	2736
247.798	4517
247.861	13380
247.925	32581
247.989	8844
248.052	4736
248.116	4627
248.179	8211
248.243	56164
248.306	49401
248.370	33738
248.433	10382
248.497	8373
248.560	9815
248.624	12810
248.687	18445
248.751	58405
248.814	24492
248.877	26739
248.941	39993
249.004	70780
249.068	55009
249.131	17009
249.194	10354
249.258	11770
249.321	7810
249.385	6387
249.448	5443
249.511	6686
249.575	10562
249.638	8496
249.701	6007
249.765	5621
249.828	6109
249.891	5442
249.955	5864
250.018	22528
250.081	27837
250.145	9400
250.208	6887
250.271	7472
250.334	5961
250.398	6070
250.461	7641
250.524	12270
250.587	66101
250.651	102147
250.714	27468
250.777	14735
250.840	9940
250.903	8432
250.967	16412
251.030	38297
251.093	14706
251.156	12127
251.219	10902
251.282	16037
251.345	94852
251.409	77229
251.472	41126
251.535	172980
251.598	101248
251.661	31377
251.724	42742
251.787	43199
251.850	110252
251.913	49225
251.976	17672
252.039	13034
252.103	11779
252.166	25618
252.229	64790
252.292	60234
252.355	145386
252.418	49629
252.481	22077
252.544	15039
252.607	16046
252.670	51715
252.733	60030
252.796	139275
252.858	74840
252.921	35432
252.984	19338
253.047	13913
253.110	11273
253.173	15825
253.236	11758
253.299	11337
253.362	10554
253.425	11232
253.488	29811
253.550	16408
253.613	16441
253.676	15661
253.739	7733
253.802	10697
253.865	8074
253.928	7281
253.990	19116
254.053	32634
254.116	18460
254.179	15607
254.242	6934
254.304	14490
254.367	14602
254.430	11817
254.493	19608
254.555	35605
254.618	14730
254.681	7622
254.743	7154
254.806	6762
254.869	23255
254.932	23728
254.994	7566
255.057	6262
255.120	3384
255.182	2520
255.245	4036
255.308	2140
255.370	2004
255.433	2610
255.496	2260
255.558	2655
255.621	2711
255.683	1336
255.746	2522
255.809	2473
255.871	1977
255.934	1399
255.996	1976
256.059	1904
256.121	3302
256.184	14334
256.246	9796
256.309	7954
256.371	3449
256.434	3079
256.496	2155
256.559	3154
256.621	5569
256.684	21104
256.746	60945
256.809	17744
256.871	6105
256.934	5565
256.996	6120
257.059	3470
257.121	2596
257.183	2572
257.246	2734
257.308	2985
257.371	11880
257.433	83799
257.495	65606
257.558	24422
257.620	14415
257.683	7490
257.745	7656
257.807	4001
257.870	3650
257.932	3095
257.994	2865
258.056	2673
258.119	3410
258.181	9729
258.243	5080
258.306	3722
258.368	14323
258.430	13705
258.492	21914
258.555	27014
258.617	5949
258.679	4903
258.741	8007
258.803	4895
258.866	3128
258.928	2424
258.990	2815
259.052	3770
259.114	5495
259.177	3564
259.239	4257
259.301	10939
259.363	5713
259.425	3467
259.487	2324
259.549	2394
259.611	2514
259.674	2916
259.736	19527
259.798	36737
259.860	58861
259.922	42281
259.984	9625
260.046	5185
260.108	4278
260.170	3820
260.232	2804
260.294	3657
260.356	1737
260.418	4256
260.480	8328
260.542	7889
260.604	25874
260.666	36848
260.728	7506
260.790	5796
260.852	3844
260.914	4341
260.976	3272
261.038	7682
261.100	35330
261.161	29187
261.223	6900
261.285	16346
261.347	22527
261.409	5934
261.471	4500
261.533	3195
261.595	2942
261.656	9863
261.718	21902
261.780	7704
261.842	5040
261.904	2992
261.966	3673
262.027	3222
262.089	7980
262.151	6218
262.213	3423
262.274	10231
262.336	8187
262.398	4040
262.460	9914
262.521	23393
262.583	5895
262.645	3402
262.706	5177
262.768	22602
262.830	8317
262.892	4276
262.953	4785
263.015	39691
263.077	95496
263.138	24580
263.200	10492
263.261	5754
263.323	3588
263.385	2920
263.446	3407
263.508	8911
263.569	4874
263.631	2629
263.693	1910
263.754	1929
263.816	1454
263.877	1064
263.939	1366
264.000	2440
264.062	5929
264.123	3345
264.185	1036
264.246	1133
264.308	5284
264.369	11968
264.431	2365
264.492	1751
264.554	3822
264.615	6798
264.677	2829
264.738	1574
264.800	1222
264.861	1377
264.922	935
264.984	1066
265.045	1032
265.107	2743
265.168	28828
265.229	21288
265.291	3740
265.352	2762
265.413	1828
265.475	553
265.536	1705
265.597	1424
265.659	820
265.720	1402
265.781	695
265.843	843
265.904	5047
265.965	54073
266.026	31765
266.088	7600
266.149	5147
266.210	2906
266.271	608
266.333	2538
266.394	2390
266.455	1440
266.516	719
266.577	4118
266.639	7890
266.700	2552
266.761	1059
266.822	907
266.883	2038
266.944	996
267.005	1078
267.067	1067
267.128	108
267.189	101
267.250	2124
267.311	640
267.372	-547
267.433	345
267.494	941
267.555	663
267.616	-639
267.677	1027
267.738	927
267.799	4166
267.860	11432
267.921	3038
267.982	3397
268.043	1491
268.104	1288
268.165	917
268.226	709
268.287	611
268.348	1454
268.409	2015
268.470	293
268.531	319
268.592	676
268.653	592
268.714	619
268.775	989
268.836	6270
268.896	8172
268.957	2575
269.018	382
269.079	1225
269.140	457
269.201	990
269.262	1249
269.322	802
269.383	719
269.444	2749
269.505	3480
269.565	4825
269.626	1851
269.687	1744
269.748	650
269.809	1623
269.869	4965
269.930	1684
269.991	627
270.051	201
270.112	1447
270.173	871
270.234	839
270.294	849
270.355	1712
270.416	742
270.476	582
270.537	4191
270.598	11662
270.658	3532
270.719	1831
270.779	3503
270.840	1580
270.901	1591
270.961	2270
271.022	2261
271.082	4905
271.143	4815
271.203	1877
271.264	993
271.325	2808
271.385	10937
271.446	4891
271.506	2207
271.567	3020
271.627	1605
271.688	2735
271.748	8846
271.809	52335
271.869	76668
271.930	16846
271.990	33617
272.050	67354
272.111	14642
272.171	7340
272.232	8283
272.292	42955
272.352	18596
272.413	10432
272.473	8578
272.534	9104
272.594	5171
272.654	7523
272.715	13447
272.775	5452
272.835	5128
272.896	2677
272.956	3017
273.016	5722
273.077	4683
273.137	3246
273.197	2866
273.257	21222
273.318	45655
273.378	12748
273.438	14061
273.498	31669
273.559	11680
273.619	22513
273.679	57439
273.739	15633
273.799	7506
273.860	24274
273.920	45650
273.980	9587
274.040	6404
274.100	9345
274.160	62658
274.221	54336
274.281	33348
274.341	40486
274.401	23993
274.461	8107
274.521	7597
274.581	37803
274.641	48038
274.701	16054
274.761	7994
274.821	19830
274.882	71003
274.942	68312
275.002	37789
275.062	11663
275.122	6438
275.182	5381
275.242	6660
275.302	9415
275.362	8669
275.421	6135
275.481	30184
275.541	67686
275.601	32730
275.661	14726
275.721	9436
275.781	4925
275.841	4488
275.901	4700
275.961	3822
276.021	2351
276.081	7526
276.140	20808
276.200	8610
276.260	6166
276.320	4190
276.380	4698
276.440	3089
276.499	1878
276.559	1930
276.619	4225
276.679	14125
276.738	9925
276.798	4748
276.858	4351
276.918	4190
276.978	2934
277.037	2785
277.097	5503
