'Start Wavelength	183.833
'End Wavelength	1047.133
'Gate Delay	5.000
'Gate Width (ms)	1.050
'Laser Output Level	0.000
'X Position	0.000
'Y Position	0.000
'Z Position	0.000
'Grid Point Number	1.000
'Shot Number	100.000
183.833	-244.000
183.903	-83.000
183.973	19
184.042	713
184.112	855
184.182	-159
184.252	9
184.321	-127
184.391	586
184.461	431
184.531	-84
184.600	654
184.670	-772
184.740	239
184.809	571
184.879	241
184.949	782
185.018	874
185.088	736
185.158	652
185.228	64
185.297	831
185.367	-476
185.436	-41
185.506	401
185.576	644
185.645	602
185.715	-185
185.785	-58
185.854	-467
185.924	279
185.993	393
186.063	335
186.133	-85
186.202	355
186.272	-162
186.341	561
186.411	48
186.481	295
186.550	348
186.620	709
186.689	397
186.759	-156
186.828	804
186.898	86
186.967	930
187.037	442
187.106	303
187.176	825
187.246	909
187.315	260
187.385	818
187.454	-56
187.524	306
187.593	622
187.662	1419
187.732	1132
187.801	732
187.871	364
187.940	498
188.010	855
188.079	666
188.149	403
188.218	1179
188.288	1050
188.357	654
188.426	-273
188.496	539
188.565	170
188.635	496
188.704	865
188.773	1090
188.843	759
188.912	190
188.981	1
189.051	293
189.120	6
189.190	484
189.259	540
189.328	497
189.398	141
189.467	271
189.536	799
189.606	935
189.675	849
189.744	211
189.813	1052
189.883	538
189.952	130
190.021	574
190.091	1494
190.160	630
190.229	46
190.298	287
190.368	23
190.437	604
190.506	611
190.575	393
190.645	370
190.714	984
190.783	1135
190.852	708
190.922	537
190.991	1324
191.060	754
191.129	131
191.198	-216
191.268	839
191.337	1747
191.406	182
191.475	421
191.544	867
191.613	174
191.683	621
191.752	498
191.821	888
191.890	467
191.959	13
192.028	526
192.097	633
192.166	406
192.236	442
192.305	534
192.374	191
192.443	327
192.512	676
192.581	1060
192.650	707
192.719	294
192.788	336
192.857	78
192.926	981
192.995	276
193.064	1195
193.133	-178
193.202	867
193.271	901
193.340	155
193.409	420
193.478	586
193.547	344
193.616	931
193.685	429
193.754	125
193.823	771
193.892	354
193.961	231
194.030	161
194.099	293
194.168	853
194.237	972
194.306	-71
194.375	593
194.444	246
194.513	722
194.582	908
194.651	1657
194.720	978
194.788	272
194.857	1116
194.926	743
194.995	1288
195.064	1589
195.133	946
195.202	1817
195.270	1136
195.339	642
195.408	554
195.477	1258
195.546	1355
195.615	809
195.683	1741
195.752	1677
195.821	1449
195.890	2170
195.959	2097
196.027	1705
196.096	1996
196.165	2355
196.234	959
196.303	924
196.371	1494
196.440	1017
196.509	631
196.578	357
196.646	416
196.715	-33
196.784	220
196.853	392
196.921	572
196.990	436
197.059	316
197.127	1015
197.196	108
197.265	-160
197.333	579
197.402	739
197.471	219
197.539	1060
197.608	733
197.677	900
197.745	377
197.814	1430
197.883	262
197.951	1690
198.020	930
198.088	25
198.157	1184
198.226	1380
198.294	648
198.363	654
198.431	38
198.500	1050
198.569	871
198.637	235
198.706	235
198.774	1588
198.843	1573
198.911	505
198.980	62
199.048	1123
199.117	1165
199.185	295
199.254	358
199.322	469
199.391	549
199.459	569
199.528	593
199.596	301
199.665	459
199.733	530
199.802	328
199.870	680
199.939	-349
200.007	1122
200.076	668
200.144	447
200.213	770
200.281	417
200.349	683
200.418	1214
200.486	439
200.555	436
200.623	1223
200.691	575
200.760	906
200.828	894
200.897	495
200.965	651
201.033	473
201.102	-146
201.170	1007
201.238	867
201.307	600
201.375	155
201.443	914
201.512	662
201.580	449
201.648	334
201.716	731
201.785	1181
201.853	903
201.921	1118
201.990	403
202.058	235
202.126	570
202.194	980
202.263	589
202.331	229
202.399	205
202.467	987
202.536	2562
202.604	659
202.672	701
202.740	708
202.808	597
202.877	822
202.945	416
203.013	768
203.081	963
203.149	1108
203.218	248
203.286	1168
203.354	742
203.422	1271
203.490	745
203.558	-6
203.626	811
203.695	783
203.763	429
203.831	693
203.899	296
203.967	356
204.035	866
204.103	284
204.171	587
204.239	812
204.307	865
204.375	233
204.443	-195
204.512	105
204.580	650
204.648	142
204.716	783
204.784	663
204.852	957
204.920	655
204.988	1110
205.056	1190
205.124	1093
205.192	576
205.260	290
205.328	636
205.396	712
205.464	539
205.532	-210
205.600	126
205.667	252
205.735	1058
205.803	1792
205.871	466
205.939	736
206.007	634
206.075	574
206.143	697
206.211	1107
206.279	-355
206.347	628
206.414	690
206.482	270
206.550	723
206.618	1089
206.686	130
206.754	949
206.822	1143
206.889	-647
206.957	483
207.025	353
207.093	-438
207.161	480
207.229	594
207.296	563
207.364	-408
207.432	145
207.500	530
207.567	775
207.635	155
207.703	120
207.771	803
207.839	332
207.906	561
207.974	800
208.042	29
208.109	70
208.177	548
208.245	455
208.313	1152
208.380	1994
208.448	230
208.516	311
208.583	881
208.651	1606
208.719	235
208.786	1018
208.854	394
208.922	-66
208.989	967
209.057	1152
209.125	656
209.192	1211
209.260	386
209.327	2494
209.395	1619
209.463	218
209.530	321
209.598	986
209.665	218
209.733	1163
209.801	944
209.868	987
209.936	975
210.003	438
210.071	885
210.138	1655
210.206	2096
210.273	1302
210.341	664
210.408	276
210.476	415
210.543	1047
210.611	1854
210.678	625
210.746	778
210.813	705
210.881	1398
210.948	953
211.016	1715
211.083	886
211.151	818
211.218	1157
211.285	1324
211.353	1530
211.420	1046
211.488	1697
211.555	314
211.622	655
211.690	1056
211.757	502
211.825	1067
211.892	735
211.959	389
212.027	-148
212.094	760
212.161	561
212.229	1593
212.296	2378
212.363	6957
212.431	2870
212.498	1052
212.565	1157
212.633	851
212.700	971
212.767	380
212.835	663
212.902	215
212.969	92
213.036	1172
213.104	978
213.171	1591
213.238	223
213.305	386
213.373	280
213.440	881
213.507	1340
213.574	781
213.641	743
213.709	-257
213.776	1691
213.843	1996
213.910	2030
213.977	1676
214.045	589
214.112	619
214.179	866
214.246	1323
214.313	1441
214.380	876
214.447	947
214.515	1341
214.582	1344
214.649	1329
214.716	464
214.783	458
214.850	1486
214.917	2206
214.984	1697
215.051	2081
215.118	2489
215.185	1651
215.253	1085
215.320	883
215.387	1288
215.454	1437
215.521	1022
215.588	1339
215.655	697
215.722	1350
215.789	2313
215.856	3546
215.923	2613
215.990	1492
216.057	463
216.124	1398
216.191	1552
216.258	1318
216.325	1614
216.391	2570
216.458	1768
216.525	2913
216.592	5352
216.659	4694
216.726	1819
216.793	1342
216.860	926
216.927	1020
216.994	1574
217.061	1805
217.127	1355
217.194	1426
217.261	2217
217.328	1327
217.395	850
217.462	959
217.529	1440
217.595	1447
217.662	1243
217.729	3291
217.796	3451
217.863	796
217.929	651
217.996	1575
218.063	1087
218.130	608
218.196	1199
218.263	706
218.330	1051
218.397	1317
218.463	713
218.530	939
218.597	3952
218.664	3990
218.730	1239
218.797	1330
218.864	715
218.930	598
218.997	1284
219.064	1775
219.131	3471
219.197	1819
219.264	1053
219.331	661
219.397	837
219.464	1134
219.530	2276
219.597	1857
219.664	639
219.730	761
219.797	1334
219.864	1064
219.930	1994
219.997	4196
220.063	2712
220.130	1807
220.196	757
220.263	880
220.330	664
220.396	2069
220.463	1455
220.529	132
220.596	1106
220.662	89
220.729	4189
220.795	2504
220.862	2897
220.928	2977
220.995	4520
221.061	4872
221.128	3922
221.194	1523
221.261	988
221.327	1455
221.394	980
221.460	766
221.526	971
221.593	4919
221.659	3122
221.726	3332
221.792	2558
221.859	1450
221.925	1586
221.991	1070
222.058	1260
222.124	3178
222.190	2130
222.257	1172
222.323	263
222.390	802
222.456	1613
222.522	1043
222.589	1638
222.655	1947
222.721	1683
222.788	1435
222.854	1628
222.920	2206
222.986	3159
223.053	2165
223.119	1615
223.185	311
223.251	-192
223.318	1094
223.384	865
223.450	482
223.516	823
223.583	532
223.649	181
223.715	328
223.781	1638
223.848	2002
223.914	768
223.980	1264
224.046	763
224.112	90
224.178	475
224.245	255
224.311	814
224.377	733
224.443	111
224.509	877
224.575	-86
224.641	-320
224.708	48
224.774	487
224.840	1351
224.906	578
224.972	-112
225.038	1603
225.104	1310
225.170	1287
225.236	479
225.302	1277
225.368	1187
225.434	218
225.500	1332
225.566	1704
225.632	198
225.699	1010
225.765	1085
225.831	1814
225.897	4669
225.963	3143
226.028	2986
226.094	2017
226.160	1990
226.226	3153
226.292	5844
226.358	5866
226.424	4296
226.490	2586
226.556	1271
226.622	3463
226.688	7167
226.754	4205
226.820	9079
226.886	8001
226.951	2574
227.017	2031
227.083	2631
227.149	4836
227.215	5870
227.281	5112
227.347	2976
227.412	2410
227.478	5455
227.544	6672
227.610	6380
227.676	3237
227.742	1826
227.807	1088
227.873	2486
227.939	6832
228.005	2418
228.070	1263
228.136	566
228.202	1646
228.268	2583
228.333	2884
228.399	2500
228.465	930
228.531	961
228.596	792
228.662	4086
228.728	2727
228.793	1873
228.859	1068
228.925	2800
228.990	2776
229.056	2913
229.122	1540
229.187	2263
229.253	1788
229.319	2400
229.384	3480
229.450	1013
229.516	279
229.581	2145
229.647	1640
229.712	6409
229.778	6370
229.844	4593
229.909	7089
229.975	5656
230.040	2468
230.106	3199
230.171	3282
230.237	6738
230.302	5354
230.368	1864
230.433	1727
230.499	5866
230.564	3024
230.630	1506
230.695	887
230.761	655
230.826	4483
230.892	2742
230.957	693
231.023	772
231.088	793
231.154	1183
231.219	2403
231.285	3716
231.350	1934
231.415	1473
231.481	651
231.546	693
231.612	956
231.677	141
231.742	1983
231.808	813
231.873	487
231.938	3367
232.004	3684
232.069	1700
232.135	1075
232.200	1466
232.265	783
232.330	786
232.396	896
232.461	290
232.526	841
232.592	1549
232.657	3223
232.722	2718
232.788	1373
232.853	829
232.918	1403
232.983	538
233.048	3701
233.114	2185
233.179	3936
233.244	4680
233.309	1234
233.375	1525
233.440	1443
233.505	698
233.570	1482
233.635	1279
233.700	2981
233.766	5076
233.831	3518
233.896	3986
233.961	4067
234.026	3100
234.091	2641
234.156	2804
234.222	3792
234.287	10625
234.352	9967
234.417	6624
234.482	3816
234.547	3439
234.612	3120
234.677	3842
234.742	11037
234.807	7398
234.872	3151
234.937	2751
235.002	2571
235.067	1915
235.132	1227
235.197	1869
235.262	925
235.327	1824
235.392	3101
235.457	3235
235.522	2863
235.587	1486
235.652	1650
235.717	2089
235.782	1659
235.847	5677
235.912	7255
235.977	8165
236.042	2738
236.107	3189
236.172	2944
236.236	1809
236.301	1293
236.366	3509
236.431	6223
236.496	3261
236.561	3348
236.626	13131
236.691	10028
236.755	4982
236.820	5266
236.885	4467
236.950	2221
237.015	4308
237.079	4157
237.144	5217
237.209	12119
237.274	26656
237.339	13622
237.403	6867
237.468	5583
237.533	3003
237.598	2453
237.662	2748
237.727	3474
237.792	4406
237.856	4588
237.921	3257
237.986	5257
238.050	6217
238.115	14725
238.180	12793
238.245	8057
238.309	5948
238.374	5037
238.438	4737
238.503	1934
238.568	2877
238.632	2019
238.697	2290
238.762	5849
238.826	6835
238.891	4755
238.955	4814
239.020	2466
239.085	2924
239.149	2475
239.214	2018
239.278	1604
239.343	1776
239.407	2741
239.472	12824
239.536	9750
239.601	3925
239.665	2224
239.730	3718
239.794	8302
239.859	11583
239.923	5702
239.988	2651
240.052	3086
240.117	2525
240.181	2228
240.246	2107
240.310	2815
240.374	8766
240.439	12973
240.503	5314
240.568	6623
240.632	7887
240.696	4720
240.761	3626
240.825	2413
240.890	2531
240.954	7278
241.018	12973
241.083	7766
241.147	3597
241.211	4387
241.276	8328
241.340	4320
241.404	2818
241.469	3903
241.533	3554
241.597	1979
241.661	2586
241.726	3722
241.790	4265
241.854	3390
241.919	3448
241.983	2471
242.047	4009
242.111	3588
242.175	1060
242.240	3304
242.304	3414
242.368	6156
242.432	3959
242.496	1899
242.561	1826
242.625	2214
242.689	1109
242.753	4193
242.817	3034
242.881	3039
242.946	2709
243.010	4107
243.074	5142
243.138	3512
243.202	4037
243.266	4520
243.330	4097
243.394	8168
243.458	23262
243.522	9928
243.586	5894
243.651	3145
243.715	4107
243.779	5636
243.843	5694
243.907	13619
243.971	11623
244.035	7527
244.099	4471
244.163	7193
244.227	10047
244.291	6926
244.355	5413
244.419	4593
244.483	4088
244.546	2775
244.610	3159
244.674	5592
244.738	6224
244.802	3823
244.866	2603
244.930	1949
244.994	3627
245.058	4081
245.122	4568
245.186	4224
245.249	5622
245.313	6396
245.377	4846
245.441	3463
245.505	5069
245.569	4404
245.632	4281
245.696	11851
245.760	6941
245.824	4224
245.888	3715
245.951	5006
246.015	4901
246.079	6142
246.143	16882
246.207	25500
246.270	12248
246.334	8309
246.398	7907
246.461	13096
246.525	7442
246.589	6897
246.653	7342
246.716	10186
246.780	9285
246.844	10907
246.907	4842
246.971	5216
247.035	5881
247.098	5934
247.162	16580
247.226	33167
247.289	18185
247.353	7227
247.416	13968
247.480	9623
247.544	7289
247.607	11683
247.671	7255
247.734	5551
247.798	6548
247.861	14828
247.925	31864
247.989	13080
248.052	6531
248.116	8336
248.179	13677
248.243	51925
248.306	55145
248.370	35743
248.433	14497
248.497	11616
248.560	17209
248.624	22124
248.687	26886
248.751	55551
248.814	33692
248.877	30288
248.941	41245
249.004	62847
249.068	54581
249.131	23304
249.194	13606
249.258	13577
249.321	11248
249.385	10378
249.448	7908
249.511	10572
249.575	16318
249.638	12116
249.701	7354
249.765	6488
249.828	8149
249.891	7491
249.955	6169
250.018	19303
250.081	28627
250.145	13798
250.208	10141
250.271	9220
250.334	7791
250.398	8377
250.461	9164
250.524	11175
250.587	25328
250.651	40990
250.714	21351
250.777	14866
250.840	7338
250.903	7556
250.967	13093
251.030	29576
251.093	14773
251.156	15590
251.219	12292
251.282	11541
251.345	35510
251.409	33760
251.472	21335
251.535	61737
251.598	45127
251.661	22855
251.724	33874
251.787	30488
251.850	45625
251.913	29162
251.976	18354
252.039	14482
252.103	13173
252.166	28838
252.229	60785
252.292	48507
252.355	69132
252.418	38260
252.481	27418
252.544	18489
252.607	17691
252.670	42706
252.733	38905
252.796	60238
252.858	55813
252.921	42177
252.984	25286
253.047	23136
253.110	14486
253.173	15099
253.236	15405
253.299	19296
253.362	20037
253.425	20815
253.488	32924
253.550	25906
253.613	32618
253.676	35198
253.739	15367
253.802	16777
253.865	16898
253.928	13199
253.990	23232
254.053	34194
254.116	36963
254.179	29035
254.242	13540
254.304	24374
254.367	28209
254.430	26015
254.493	24202
254.555	40721
254.618	29214
254.681	18018
254.743	14135
254.806	12982
254.869	23465
254.932	24575
254.994	12768
255.057	13900
255.120	8304
255.182	8147
255.245	10025
255.308	7350
255.370	5448
255.433	5360
255.496	6269
255.558	7387
255.621	8195
255.683	5811
255.746	5835
255.809	4555
255.871	4821
255.934	4336
255.996	4908
256.059	4652
256.121	6471
256.184	15466
256.246	10874
256.309	10832
256.371	7311
256.434	5353
256.496	3762
256.559	4245
256.621	5966
256.684	8956
256.746	18768
256.809	8807
256.871	7582
256.934	7553
256.996	10618
257.059	7766
257.121	4879
257.183	5270
257.246	5737
257.308	3337
257.371	7932
257.433	24129
257.495	34746
257.558	34458
257.620	20283
257.683	8775
257.745	8582
257.807	5327
257.870	5975
257.932	5650
257.994	7810
258.056	7030
258.119	7932
258.181	18889
258.243	9827
258.306	5933
258.368	18188
258.430	15974
258.492	15663
258.555	19386
258.617	6344
258.679	6666
258.741	17353
258.803	9456
258.866	5304
258.928	5606
258.990	5519
259.052	6603
259.114	8239
259.177	5764
259.239	8821
259.301	28208
259.363	17446
259.425	6823
259.487	6329
259.549	7957
259.611	11030
259.674	6061
259.736	14196
259.798	25775
259.860	40831
259.922	54142
259.984	19817
260.046	7805
260.108	6394
260.170	4900
260.232	4199
260.294	6409
260.356	5084
260.418	20255
260.480	36360
260.542	20651
260.604	27999
260.666	32665
260.728	10211
260.790	9314
260.852	8288
260.914	7925
260.976	7124
261.038	27160
261.100	52994
261.161	27069
261.223	10751
261.285	14960
261.347	20645
261.409	7590
261.471	7495
261.533	4977
261.595	4717
261.656	9393
261.718	25531
261.780	14098
261.842	9870
261.904	13003
261.966	15959
262.027	7071
262.089	10823
262.151	8205
262.213	6758
262.274	17846
262.336	14409
262.398	6506
262.460	9252
262.521	20747
262.583	8266
262.645	5242
262.706	6617
262.768	18853
262.830	10086
262.892	6738
262.953	7282
263.015	25202
263.077	64589
263.138	36069
263.200	31056
263.261	10428
263.323	6606
263.385	5267
263.446	5281
263.508	17316
263.569	12018
263.631	5957
263.693	3931
263.754	4514
263.816	3917
263.877	2488
263.939	4205
264.000	14414
264.062	39097
264.123	15191
264.185	6211
264.246	5485
264.308	17512
264.369	51812
264.431	16166
264.492	8131
264.554	19167
264.615	45791
264.677	15896
264.738	8897
264.800	5120
264.861	8312
264.922	7278
264.984	3714
265.045	3304
265.107	5204
265.168	8799
265.229	8295
265.291	4314
265.352	3603
265.413	4634
265.475	3332
265.536	6188
265.597	6988
265.659	7766
265.720	3537
265.781	2224
265.843	2143
265.904	3608
265.965	14693
266.026	12282
266.088	10362
266.149	16130
266.210	6790
266.271	3786
266.333	3956
266.394	5843
266.455	4180
266.516	2860
266.577	10033
266.639	19963
266.700	6544
266.761	4602
266.822	4006
266.883	15150
266.944	9652
267.005	4941
267.067	2329
267.128	2471
267.189	2089
267.250	4600
267.311	3223
267.372	2976
267.433	3046
267.494	3784
267.555	3286
267.616	1395
267.677	3434
267.738	2298
267.799	8748
267.860	23039
267.921	18858
267.982	14114
268.043	6280
268.104	6244
268.165	4859
268.226	3951
268.287	4342
268.348	5746
268.409	6535
268.470	5196
268.531	3086
268.592	2942
268.653	2244
268.714	4964
268.775	6960
268.836	19790
268.896	21926
268.957	11346
269.018	4996
269.079	3631
269.140	3541
269.201	4262
269.262	3048
269.322	3943
269.383	5011
269.444	8231
269.505	12027
269.565	15138
269.626	9218
269.687	6496
269.748	4884
269.809	7335
269.869	13068
269.930	5386
269.991	3790
270.051	4261
270.112	3470
270.173	4465
270.234	3102
270.294	3307
270.355	4318
270.416	3554
270.476	4435
270.537	13053
270.598	24911
270.658	10839
270.719	5221
270.779	9638
270.840	7614
270.901	5940
270.961	6507
271.022	7594
271.082	12464
271.143	12526
271.203	6056
271.264	4223
271.325	6097
271.385	17242
271.446	9980
271.506	6598
271.567	6685
271.627	5634
271.688	7207
271.748	16395
271.809	55342
271.869	75906
271.930	25631
271.990	32909
272.050	56562
272.111	17912
272.171	10359
272.232	10686
272.292	37237
272.352	22499
272.413	21422
272.473	25762
272.534	21222
272.594	16446
272.654	15939
272.715	28125
272.775	14861
272.835	12938
272.896	6287
272.956	7133
273.016	13395
273.077	17641
273.137	10918
273.197	9372
273.257	40166
273.318	62750
273.378	27588
273.438	25716
273.498	59354
273.559	24301
273.619	28197
273.679	55391
273.739	22704
273.799	12626
273.860	25023
273.920	52421
273.980	16849
274.040	11486
274.100	15823
274.160	77438
274.221	64084
274.281	46253
274.341	47687
274.401	39317
274.461	17171
274.521	12374
274.581	37881
274.641	54139
274.701	23484
274.761	11931
274.821	23882
274.882	75674
274.942	62089
275.002	41500
275.062	19387
275.122	11482
275.182	8754
275.242	11766
275.302	23133
275.362	23748
275.421	14384
275.481	27952
275.541	64374
275.601	45475
275.661	31917
275.721	32942
275.781	22674
275.841	9272
275.901	9968
275.961	10617
276.021	7530
276.081	15499
276.140	47879
276.200	21865
276.260	17384
276.320	9187
276.380	12951
276.440	9862
