'Start Wavelength	183.833
'End Wavelength	1047.133
'Gate Delay	5.000
'Gate Width (ms)	1.050
'Laser Output Level	0.000
'X Position	0.000
'Y Position	0.000
'Z Position	0.000
'Grid Point Number	1.000
'Shot Number	100.000
183.833	734.000
183.903	-342.000
183.973	1242
184.042	86
184.112	194
184.182	-372
184.252	354
184.321	-488
184.391	1151
184.461	-46
184.531	-615
184.600	-476
184.670	-302
184.740	365
184.809	642
184.879	-86
184.949	72
185.018	100
185.088	634
185.158	-7
185.228	298
185.297	270
185.367	553
185.436	-450
185.506	90
185.576	-365
185.645	380
185.715	-339
185.785	-632
185.854	-529
185.924	-283
185.993	-591
186.063	923
186.133	-766
186.202	-208
186.272	105
186.341	274
186.411	-239
186.481	851
186.550	1257
186.620	496
186.689	-114
186.759	284
186.828	-595
186.898	794
186.967	87
187.037	1100
187.106	-479
187.176	-238
187.246	-724
187.315	599
187.385	602
187.454	1154
187.524	454
187.593	-342
187.662	-72
187.732	-141
187.801	297
187.871	480
187.940	-238
188.010	296
188.079	-22
188.149	395
188.218	74
188.288	997
188.357	458
188.426	338
188.496	-130
188.565	-259
188.635	-200
188.704	147
188.773	185
188.843	436
188.912	-13
188.981	-174
189.051	-572
189.120	-2
189.190	603
189.259	1711
189.328	-354
189.398	194
189.467	-260
189.536	-125
189.606	131
189.675	1081
189.744	595
189.813	-165
189.883	202
189.952	822
190.021	2002
190.091	2059
190.160	-17
190.229	441
190.298	-417
190.368	480
190.437	101
190.506	321
190.575	-401
190.645	519
190.714	-586
190.783	423
190.852	-239
190.922	285
190.991	274
191.060	525
191.129	-392
191.198	251
191.268	-593
191.337	448
191.406	-352
191.475	465
191.544	-262
191.613	-33
191.683	-38
191.752	663
191.821	-619
191.890	363
191.959	-51
192.028	174
192.097	198
192.166	580
192.236	-550
192.305	592
192.374	-435
192.443	601
192.512	-266
192.581	-70
192.650	32
192.719	853
192.788	647
192.857	-44
192.926	-156
192.995	646
193.064	689
193.133	429
193.202	260
193.271	541
193.340	673
193.409	951
193.478	-247
193.547	847
193.616	866
193.685	1179
193.754	1
193.823	-224
193.892	366
193.961	667
194.030	-155
194.099	237
194.168	-884
194.237	721
194.306	-124
194.375	562
194.444	-816
194.513	569
194.582	868
194.651	-85
194.720	-139
194.788	-192
194.857	483
194.926	69
194.995	-293
195.064	130
195.133	474
195.202	432
195.270	343
195.339	258
195.408	-322
195.477	540
195.546	52
195.615	-345
195.683	-152
195.752	574
195.821	-544
195.890	432
195.959	20
196.027	523
196.096	297
196.165	991
196.234	-283
196.303	46
196.371	37
196.440	628
196.509	-124
196.578	-357
196.646	-84
196.715	-31
196.784	-208
196.853	324
196.921	217
196.990	799
197.059	-83
197.127	849
197.196	13
197.265	348
197.333	696
197.402	910
197.471	-743
197.539	-25
197.608	964
197.677	2703
197.745	1003
197.814	3215
197.883	1173
197.951	2399
198.020	865
198.088	876
198.157	301
198.226	2495
198.294	8
198.363	740
198.431	-783
198.500	1397
198.569	2102
198.637	1144
198.706	51
198.774	3333
198.843	2668
198.911	471
198.980	532
199.048	141
199.117	283
199.185	692
199.254	-395
199.322	71
199.391	-71
199.459	42
199.528	-357
199.596	-215
199.665	-655
199.733	290
199.802	1149
199.870	351
199.939	119
200.007	1081
200.076	359
200.144	-115
200.213	-223
200.281	691
200.349	-17
200.418	768
200.486	492
200.555	711
200.623	71
200.691	30
200.760	-477
200.828	1168
200.897	264
200.965	559
201.033	-567
201.102	-282
201.170	-926
201.238	929
201.307	-1
201.375	588
201.443	710
201.512	-188
201.580	369
201.648	300
201.716	331
201.785	640
201.853	271
201.921	-799
201.990	-20
202.058	140
202.126	-344
202.194	726
202.263	-447
202.331	-189
202.399	-283
202.467	1470
202.536	2842
202.604	954
202.672	-674
202.740	884
202.808	260
202.877	318
202.945	50
203.013	219
203.081	-550
203.149	152
203.218	88
203.286	155
203.354	-26
203.422	764
203.490	105
203.558	327
203.626	374
203.695	752
203.763	-622
203.831	397
203.899	178
203.967	363
204.035	-220
204.103	-315
204.171	155
204.239	30
204.307	-97
204.375	542
204.443	105
204.512	679
204.580	-35
204.648	562
204.716	-776
204.784	421
204.852	-647
204.920	574
204.988	-385
205.056	411
205.124	201
205.192	-511
205.260	150
205.328	81
205.396	-579
205.464	1189
205.532	16
205.600	-201
205.667	387
205.735	3592
205.803	4107
205.871	625
205.939	234
206.007	462
206.075	-428
206.143	763
206.211	100
206.279	-554
206.347	134
206.414	916
206.482	515
206.550	226
206.618	102
206.686	258
206.754	698
206.822	948
206.889	-803
206.957	1027
207.025	-272
207.093	78
207.161	-167
207.229	492
207.296	-521
207.364	544
207.432	-169
207.500	-73
207.567	-300
207.635	321
207.703	199
207.771	-704
207.839	590
207.906	664
207.974	-610
208.042	-298
208.109	233
208.177	723
208.245	721
208.313	1198
208.380	1988
208.448	711
208.516	-71
208.583	1079
208.651	369
208.719	158
208.786	398
208.854	369
208.922	-18
208.989	694
209.057	367
209.125	204
209.192	-293
209.260	190
209.327	1190
209.395	931
209.463	-385
209.530	-508
209.598	-236
209.665	213
209.733	-2
209.801	415
209.868	94
209.936	968
210.003	522
210.071	679
210.138	167
210.206	1271
210.273	332
210.341	-104
210.408	-503
210.476	1090
210.543	323
210.611	1442
210.678	-294
210.746	639
210.813	37
210.881	638
210.948	348
211.016	1158
211.083	496
211.151	926
211.218	659
211.285	1089
211.353	-58
211.420	-64
211.488	44
211.555	-227
211.622	200
211.690	731
211.757	706
211.825	413
211.892	-599
211.959	-458
212.027	-232
212.094	529
212.161	569
212.229	1536
212.296	4106
212.363	17718
212.431	4672
212.498	857
212.565	223
212.633	1270
212.700	510
212.767	595
212.835	773
212.902	443
212.969	154
213.036	861
213.104	101
213.171	1287
213.238	62
213.305	1097
213.373	-515
213.440	476
213.507	520
213.574	1512
213.641	222
213.709	26
213.776	702
213.843	895
213.910	945
213.977	443
214.045	120
214.112	774
214.179	-98
214.246	570
214.313	166
214.380	431
214.447	832
214.515	798
214.582	141
214.649	339
214.716	56
214.783	442
214.850	527
214.917	998
214.984	1290
215.051	1165
215.118	1021
215.185	1430
215.253	523
215.320	575
215.387	-120
215.454	419
215.521	16
215.588	263
215.655	164
215.722	908
215.789	931
215.856	911
215.923	1089
215.990	748
216.057	9
216.124	285
216.191	-333
216.258	-325
216.325	853
216.391	458
216.458	415
216.525	1240
216.592	3582
216.659	2896
216.726	1565
216.793	1906
216.860	821
216.927	1130
216.994	62
217.061	859
217.127	-42
217.194	1496
217.261	2007
217.328	3333
217.395	2064
217.462	931
217.529	379
217.595	402
217.662	602
217.729	3592
217.796	2553
217.863	307
217.929	103
217.996	1053
218.063	573
218.130	509
218.196	30
218.263	558
218.330	-274
218.397	-217
218.463	-275
218.530	510
218.597	3299
218.664	3518
218.730	581
218.797	677
218.864	-271
218.930	500
218.997	173
219.064	1710
219.131	3264
219.197	1767
219.264	-70
219.331	37
219.397	-710
219.464	838
219.530	2455
219.597	1444
219.664	-24
219.730	773
219.797	218
219.864	675
219.930	1140
219.997	3590
220.063	2007
220.130	965
220.196	564
220.263	1380
220.330	2716
220.396	4779
220.463	1915
220.529	845
220.596	1525
220.662	1996
220.729	7727
220.795	5453
220.862	2664
220.928	8096
220.995	9339
221.061	11518
221.128	8931
221.194	2188
221.261	101
221.327	1417
221.394	268
221.460	842
221.526	1731
221.593	10979
221.659	6609
221.726	6927
221.792	5242
221.859	1695
221.925	1156
221.991	117
222.058	-77
222.124	2113
222.190	861
222.257	818
222.323	27
222.390	1039
222.456	-523
222.522	282
222.589	302
222.655	397
222.721	204
222.788	164
222.854	-507
222.920	-235
222.986	-163
223.053	751
223.119	520
223.185	344
223.251	-206
223.318	510
223.384	-286
223.450	-859
223.516	-161
223.583	337
223.649	-445
223.715	343
223.781	7
223.848	374
223.914	330
223.980	487
224.046	-334
224.112	246
224.178	143
224.245	-72
224.311	-173
224.377	221
224.443	-32
224.509	-100
224.575	-194
224.641	-23
224.708	-846
224.774	-222
224.840	-41
224.906	205
224.972	-390
225.038	-21
225.104	649
225.170	1028
225.236	-425
225.302	1021
225.368	48
225.434	-74
225.500	321
225.566	478
225.632	-247
225.699	638
225.765	-510
225.831	1500
225.897	2061
225.963	1663
226.028	922
226.094	1427
226.160	1117
226.226	5862
226.292	11021
226.358	5425
226.424	757
226.490	1110
226.556	1127
226.622	1542
226.688	1907
226.754	3502
226.820	15901
226.886	14561
226.951	3393
227.017	2374
227.083	1396
227.149	1297
227.215	769
227.281	759
227.347	396
227.412	745
227.478	2395
227.544	3622
227.610	1175
227.676	614
227.742	693
227.807	110
227.873	214
227.939	571
228.005	671
228.070	-351
228.136	542
228.202	-33
228.268	-68
228.333	1336
228.399	806
228.465	671
228.531	-144
228.596	-146
228.662	2392
228.728	653
228.793	-566
228.859	484
228.925	733
228.990	852
229.056	1229
229.122	945
229.187	908
229.253	395
229.319	65
229.384	1572
229.450	-290
229.516	-789
229.581	506
229.647	744
229.712	4998
229.778	5484
229.844	2212
229.909	2037
229.975	967
230.040	1550
230.106	922
230.171	1287
230.237	2827
230.302	2360
230.368	373
230.433	776
230.499	466
230.564	-194
230.630	-287
230.695	598
230.761	-661
230.826	2086
230.892	1372
230.957	126
231.023	103
231.088	318
231.154	-286
231.219	1986
231.285	1637
231.350	527
231.415	-320
231.481	1366
231.546	236
231.612	984
231.677	-492
231.742	478
231.808	45
231.873	-571
231.938	1879
232.004	2499
232.069	-64
232.135	84
232.200	-304
232.265	-115
232.330	-257
232.396	989
232.461	-316
232.526	-144
232.592	125
232.657	2763
232.722	1672
232.788	725
232.853	-51
232.918	621
232.983	-334
233.048	2134
233.114	907
233.179	4176
233.244	5558
233.309	1275
233.375	160
233.440	560
233.505	-924
233.570	415
233.635	622
233.700	3163
233.766	3876
233.831	1637
233.896	516
233.961	1691
234.026	663
234.091	579
234.156	223
234.222	1996
234.287	11887
234.352	9905
234.417	3836
234.482	2397
234.547	1487
234.612	1690
234.677	1299
234.742	11362
234.807	6513
234.872	1450
234.937	-40
235.002	833
235.067	387
235.132	1111
235.197	574
235.262	679
235.327	820
235.392	1883
235.457	1569
235.522	707
235.587	97
235.652	69
235.717	887
235.782	1532
235.847	5053
235.912	5706
235.977	6239
236.042	1974
236.107	1867
236.172	2167
236.236	328
236.301	921
236.366	2679
236.431	6854
236.496	1522
236.561	4221
236.626	23102
236.691	15236
236.755	5270
236.820	3841
236.885	2425
236.950	2173
237.015	2435
237.079	2214
237.144	4959
237.209	22567
237.274	44667
237.339	17221
237.403	5266
237.468	4631
237.533	1926
237.598	2402
237.662	831
237.727	2002
237.792	3537
237.856	4600
237.921	1638
237.986	5188
238.050	3769
238.115	16288
238.180	13986
238.245	5815
238.309	3910
238.374	2391
238.438	2085
238.503	943
238.568	1543
238.632	1012
238.697	1024
238.762	7294
238.826	8320
238.891	3204
238.955	1618
239.020	1358
239.085	1347
239.149	624
239.214	822
239.278	601
239.343	237
239.407	2103
239.472	14806
239.536	13052
239.601	2595
239.665	1524
239.730	1609
239.794	6009
239.859	11977
239.923	4647
239.988	439
240.052	975
240.117	1250
240.181	275
240.246	747
240.310	794
240.374	7909
240.439	16086
240.503	3746
240.568	7026
240.632	9083
240.696	1114
240.761	850
240.825	231
240.890	886
240.954	8615
241.018	15907
241.083	6352
241.147	1092
241.211	2856
241.276	6930
241.340	2896
241.404	841
241.469	1796
241.533	1576
241.597	510
241.661	-31
241.726	1740
241.790	739
241.854	739
241.919	801
241.983	1323
242.047	-166
242.111	548
242.175	81
242.240	926
242.304	901
242.368	1633
242.432	899
242.496	1298
242.561	86
242.625	1183
242.689	-11
242.753	970
242.817	1058
242.881	1970
242.946	631
243.010	1779
243.074	1792
243.138	582
243.202	696
243.266	1516
243.330	1744
243.394	14564
243.458	49432
243.522	14223
243.586	3861
243.651	2240
243.715	2168
243.779	3982
243.843	5368
243.907	6947
243.971	3872
244.035	2308
244.099	1150
244.163	1998
244.227	3520
244.291	4945
244.355	1608
244.419	2131
244.483	1249
244.546	581
244.610	1030
244.674	2424
244.738	1857
244.802	1426
244.866	751
244.930	611
244.994	762
245.058	1390
245.122	2654
245.186	2961
245.249	2011
245.313	1039
245.377	1229
245.441	1020
245.505	1832
245.569	1634
245.632	1023
245.696	6977
245.760	2367
245.824	1593
245.888	795
245.951	1403
246.015	1084
246.079	2551
246.143	9587
246.207	19414
246.270	6416
246.334	3334
246.398	3129
246.461	6493
246.525	3186
246.589	2229
246.653	2570
246.716	3107
246.780	3233
246.844	4947
246.907	948
246.971	2295
247.035	1848
247.098	2553
247.162	8770
247.226	27366
247.289	11297
247.353	3932
247.416	6988
247.480	3552
247.544	2763
247.607	3886
247.671	2214
247.734	2349
247.798	1952
247.861	9239
247.925	23099
247.989	7428
248.052	2020
248.116	3439
248.179	5683
248.243	35457
248.306	34904
248.370	24932
248.433	7092
248.497	4881
248.560	5926
248.624	9180
248.687	12465
248.751	38636
248.814	18077
248.877	19583
248.941	28616
249.004	47644
249.068	39075
249.131	11876
249.194	6137
249.258	8769
249.321	4783
249.385	3942
249.448	2934
249.511	4836
249.575	7558
249.638	5181
249.701	2610
249.765	3655
249.828	3850
249.891	4265
249.955	2663
250.018	15546
250.081	20883
250.145	6604
250.208	3954
250.271	4534
250.334	3863
250.398	3101
250.461	3983
250.524	7988
250.587	48490
250.651	82936
250.714	23010
250.777	10849
250.840	5920
250.903	5379
250.967	9513
251.030	26645
251.093	10621
251.156	8517
251.219	6954
251.282	11187
251.345	71423
251.409	64276
251.472	31651
251.535	135569
251.598	85559
251.661	24941
251.724	30320
251.787	31191
251.850	83210
251.913	41799
251.976	13174
252.039	7987
252.103	7447
252.166	16377
252.229	43637
252.292	45199
252.355	111861
252.418	40279
252.481	15805
252.544	10098
252.607	10986
252.670	35310
252.733	42399
252.796	108838
252.858	59405
252.921	27212
252.984	13702
253.047	9144
253.110	6684
253.173	13218
253.236	8600
253.299	8869
253.362	7450
253.425	8237
253.488	22075
253.550	13207
253.613	12455
253.676	12612
253.739	5681
253.802	9026
253.865	6383
253.928	5087
253.990	13218
254.053	25155
254.116	13660
254.179	11878
254.242	5266
254.304	10229
254.367	11559
254.430	9345
254.493	14249
254.555	27014
254.618	11545
254.681	5745
254.743	4895
254.806	4919
254.869	16793
254.932	18061
254.994	6607
255.057	4865
255.120	2297
255.182	1619
255.245	2778
255.308	1972
255.370	1177
255.433	2020
255.496	1292
255.558	1556
255.621	1348
255.683	829
255.746	1952
255.809	1163
255.871	1249
255.934	949
255.996	853
256.059	808
256.121	2138
256.184	12290
256.246	8565
256.309	7278
256.371	2677
256.434	2026
256.496	1371
256.559	1432
256.621	3598
256.684	11227
256.746	31343
256.809	10966
256.871	3541
256.934	3581
256.996	3349
257.059	2703
257.121	2669
257.183	969
257.246	621
257.308	1917
257.371	5895
257.433	43129
257.495	38308
257.558	24247
257.620	11438
257.683	4990
257.745	4554
257.807	1953
257.870	2172
257.932	1423
257.994	953
258.056	880
258.119	2626
258.181	8182
258.243	3159
258.306	2396
258.368	10340
258.430	10366
258.492	17527
258.555	22526
258.617	3879
258.679	3748
258.741	4809
258.803	3134
258.866	1748
258.928	1982
258.990	1350
259.052	2588
259.114	4038
259.177	3117
259.239	2959
259.301	14533
259.363	7737
259.425	2384
259.487	1044
259.549	2175
259.611	1152
259.674	2248
259.736	15233
259.798	30403
259.860	45610
259.922	33630
259.984	7022
260.046	3787
260.108	2306
260.170	1581
260.232	1067
260.294	2317
260.356	1137
260.418	2582
260.480	9635
260.542	9143
260.604	20972
260.666	31901
260.728	5625
260.790	5055
260.852	2836
260.914	3244
260.976	2119
261.038	4060
261.100	26079
261.161	24213
261.223	4343
261.285	13531
261.347	18848
261.409	3317
261.471	2849
261.533	1235
261.595	1353
261.656	7073
261.718	18469
261.780	6169
261.842	3229
261.904	1924
261.966	2217
262.027	2358
262.089	5837
262.151	4663
262.213	1922
262.274	7393
262.336	5245
262.398	2852
262.460	7562
262.521	20152
262.583	4936
262.645	1984
262.706	4232
262.768	19504
262.830	7059
262.892	3123
262.953	3687
263.015	32488
263.077	87047
263.138	23144
263.200	8307
263.261	4083
263.323	1745
263.385	991
263.446	898
263.508	6576
263.569	3697
263.631	1158
263.693	579
263.754	836
263.816	-848
263.877	229
263.939	-267
264.000	1490
264.062	2953
264.123	1426
264.185	-378
264.246	649
264.308	3096
264.369	5561
264.431	1639
264.492	735
264.554	1480
264.615	2176
264.677	1198
264.738	1248
264.800	146
264.861	1137
264.922	319
264.984	358
265.045	514
265.107	567
265.168	12009
265.229	10630
265.291	1410
265.352	1784
265.413	781
265.475	61
265.536	-37
265.597	502
265.659	627
265.720	965
265.781	-583
265.843	-805
265.904	2472
265.965	24665
266.026	16680
266.088	4094
266.149	2523
266.210	1579
266.271	-512
266.333	1256
266.394	978
266.455	420
266.516	-30
266.577	2414
266.639	5402
266.700	1413
266.761	-186
266.822	405
266.883	632
266.944	393
267.005	433
267.067	668
267.128	190
267.189	-378
267.250	1014
267.311	282
267.372	-678
267.433	164
267.494	841
267.555	207
267.616	-365
267.677	833
267.738	-482
267.799	4224
267.860	10535
267.921	1986
267.982	1343
268.043	809
268.104	855
268.165	613
268.226	-310
268.287	-147
268.348	899
268.409	1446
268.470	-1038
268.531	795
268.592	313
268.653	-282
268.714	325
268.775	928
268.836	4290
268.896	5697
268.957	1112
269.018	196
269.079	-222
269.140	911
269.201	253
269.262	330
269.322	556
269.383	808
269.444	1166
269.505	3312
269.565	3658
269.626	1392
269.687	1285
269.748	554
269.809	1406
269.869	3420
269.930	1314
269.991	-44
270.051	641
270.112	-345
270.173	-559
270.234	-80
270.294	207
270.355	954
270.416	286
270.476	607
270.537	3498
270.598	9354
270.658	2620
270.719	1855
270.779	2269
270.840	2094
270.901	1489
270.961	1640
271.022	1394
271.082	2622
271.143	2875
271.203	1707
271.264	677
271.325	2002
271.385	8894
271.446	3883
271.506	1230
271.567	1443
271.627	153
271.688	1595
271.748	5395
271.809	34508
271.869	53997
271.930	12340
271.990	23122
272.050	49689
272.111	10080
272.171	5008
272.232	5461
272.292	32791
272.352	14541
272.413	8111
272.473	5932
272.534	6323
272.594	4640
272.654	6035
272.715	10468
272.775	4036
272.835	3921
272.896	1827
272.956	1795
273.016	3843
273.077	3831
273.137	2341
273.197	2087
273.257	14287
273.318	35179
273.378	10978
273.438	10867
273.498	25680
273.559	8689
273.619	15721
273.679	44466
273.739	13490
273.799	5356
273.860	18274
273.920	33904
273.980	6559
274.040	3846
274.100	6170
274.160	46261
274.221	43309
274.281	25314
274.341	29766
274.401	18283
274.461	6376
274.521	4939
274.581	28194
274.641	36025
274.701	12543
274.761	4507
274.821	14499
274.882	52028
274.942	50824
275.002	29507
275.062	8243
275.122	4304
275.182	3748
275.242	3123
275.302	6031
275.362	6485
275.421	4926
275.481	21601
275.541	47745
275.601	24719
275.661	11341
275.721	5751
275.781	3838
275.841	1400
275.901	2729
275.961	2198
276.021	1498
276.081	4078
276.140	15946
276.200	6442
276.260	4587
276.320	2339
276.380	3339
276.440	2097
276.499	965
276.559	653
276.619	2303
276.679	9852
276.738	7385
276.798	2397
276.858	3644
276.918	2676
276.978	1132
277.037	1615
277.097	3217
277.157	14362
277.216	5866
277.276	2289
277.336	2026
277.395	1446
277.455	2270
277.515	1873
277.574	9445
277.634	17712
277.694	5265
