'Start Wavelength	183.833
'End Wavelength	1047.133
'Gate Delay	5.000
'Gate Width (ms)	1.050
'Laser Output Level	0.000
'X Position	0.000
'Y Position	0.000
'Z Position	0.000
'Grid Point Number	1.000
'Shot Number	100.000
183.833	283.000
183.903	399.000
183.973	402
184.042	1000
184.112	261
184.182	231
184.252	945
184.321	612
184.391	547
184.461	546
184.531	32
184.600	592
184.670	151
184.740	597
184.809	-75
184.879	369
184.949	228
185.018	-84
185.088	64
185.158	608
185.228	104
185.297	743
185.367	975
185.436	381
185.506	382
185.576	175
185.645	241
185.715	931
185.785	84
185.854	515
185.924	301
185.993	-13
186.063	-161
186.133	885
186.202	514
186.272	349
186.341	458
186.411	-126
186.481	354
186.550	1385
186.620	-132
186.689	404
186.759	585
186.828	121
186.898	236
186.967	1101
187.037	440
187.106	644
187.176	79
187.246	843
187.315	-90
187.385	1234
187.454	77
187.524	817
187.593	407
187.662	446
187.732	862
187.801	218
187.871	448
187.940	528
188.010	-374
188.079	493
188.149	545
188.218	1802
188.288	-47
188.357	953
188.426	7
188.496	6
188.565	-312
188.635	466
188.704	-235
188.773	1119
188.843	239
188.912	301
188.981	1
189.051	863
189.120	302
189.190	197
189.259	-42
189.328	505
189.398	179
189.467	832
189.536	-97
189.606	-177
189.675	534
189.744	304
189.813	97
189.883	514
189.952	238
190.021	1693
190.091	1828
190.160	545
190.229	218
190.298	899
190.368	928
190.437	444
190.506	187
190.575	174
190.645	510
190.714	492
190.783	1402
190.852	313
190.922	801
190.991	362
191.060	1097
191.129	412
191.198	-35
191.268	239
191.337	1377
191.406	-174
191.475	-175
191.544	452
191.613	415
191.683	649
191.752	560
191.821	717
191.890	382
191.959	532
192.028	163
192.097	512
192.166	197
192.236	-53
192.305	31
192.374	267
192.443	-62
192.512	18
192.581	63
192.650	231
192.719	266
192.788	652
192.857	138
192.926	77
192.995	157
193.064	1225
193.133	364
193.202	1010
193.271	-5
193.340	1506
193.409	1318
193.478	422
193.547	925
193.616	1312
193.685	1222
193.754	828
193.823	18
193.892	874
193.961	812
194.030	1001
194.099	151
194.168	821
194.237	183
194.306	83
194.375	-592
194.444	961
194.513	244
194.582	771
194.651	526
194.720	289
194.788	399
194.857	1008
194.926	-161
194.995	941
195.064	1088
195.133	1282
195.202	1031
195.270	945
195.339	363
195.408	38
195.477	961
195.546	1363
195.615	302
195.683	2279
195.752	1321
195.821	1120
195.890	1460
195.959	1364
196.027	362
196.096	1661
196.165	746
196.234	809
196.303	473
196.371	854
196.440	517
196.509	566
196.578	471
196.646	405
196.715	59
196.784	405
196.853	450
196.921	233
196.990	579
197.059	474
197.127	771
197.196	688
197.265	221
197.333	898
197.402	576
197.471	865
197.539	329
197.608	1675
197.677	1945
197.745	751
197.814	1981
197.883	1662
197.951	1733
198.020	861
198.088	250
198.157	1394
198.226	2350
198.294	720
198.363	556
198.431	158
198.500	1169
198.569	2790
198.637	1623
198.706	1187
198.774	2736
198.843	2785
198.911	1095
198.980	466
199.048	796
199.117	623
199.185	799
199.254	140
199.322	83
199.391	711
199.459	835
199.528	530
199.596	-241
199.665	319
199.733	390
199.802	1022
199.870	415
199.939	1206
200.007	458
200.076	1018
200.144	374
200.213	200
200.281	287
200.349	984
200.418	811
200.486	244
200.555	714
200.623	660
200.691	246
200.760	424
200.828	945
200.897	1038
200.965	314
201.033	1107
201.102	713
201.170	938
201.238	351
201.307	855
201.375	583
201.443	806
201.512	605
201.580	-119
201.648	-381
201.716	818
201.785	220
201.853	740
201.921	780
201.990	403
202.058	803
202.126	453
202.194	335
202.263	494
202.331	302
202.399	350
202.467	353
202.536	3270
202.604	1614
202.672	1224
202.740	319
202.808	1090
202.877	406
202.945	661
203.013	-1
203.081	852
203.149	636
203.218	427
203.286	716
203.354	115
203.422	-73
203.490	635
203.558	240
203.626	907
203.695	453
203.763	-29
203.831	-254
203.899	329
203.967	302
204.035	322
204.103	97
204.171	469
204.239	646
204.307	1264
204.375	201
204.443	94
204.512	-46
204.580	-286
204.648	606
204.716	704
204.784	317
204.852	335
204.920	409
204.988	643
205.056	-106
205.124	1224
205.192	277
205.260	641
205.328	2
205.396	392
205.464	1570
205.532	-86
205.600	233
205.667	213
205.735	2843
205.803	3379
205.871	-407
205.939	808
206.007	375
206.075	1017
206.143	293
206.211	1090
206.279	162
206.347	413
206.414	956
206.482	154
206.550	-338
206.618	-85
206.686	-135
206.754	1021
206.822	1153
206.889	-189
206.957	678
207.025	408
207.093	-350
207.161	483
207.229	202
207.296	836
207.364	951
207.432	285
207.500	323
207.567	1048
207.635	350
207.703	655
207.771	80
207.839	482
207.906	781
207.974	392
208.042	854
208.109	683
208.177	494
208.245	743
208.313	1163
208.380	2834
208.448	986
208.516	335
208.583	706
208.651	1145
208.719	1305
208.786	886
208.854	93
208.922	335
208.989	602
209.057	703
209.125	-204
209.192	486
209.260	761
209.327	1550
209.395	1087
209.463	616
209.530	405
209.598	482
209.665	315
209.733	777
209.801	241
209.868	1392
209.936	766
210.003	1116
210.071	1613
210.138	1361
210.206	1823
210.273	998
210.341	401
210.408	-60
210.476	337
210.543	1152
210.611	1774
210.678	888
210.746	411
210.813	1578
210.881	1254
210.948	1103
211.016	1530
211.083	861
211.151	1300
211.218	1362
211.285	1014
211.353	797
211.420	812
211.488	785
211.555	560
211.622	1211
211.690	662
211.757	543
211.825	483
211.892	353
211.959	768
212.027	1277
212.094	691
212.161	691
212.229	978
212.296	5010
212.363	13743
212.431	4880
212.498	1607
212.565	1541
212.633	162
212.700	1012
212.767	782
212.835	1091
212.902	53
212.969	575
213.036	986
213.104	1511
213.171	1304
213.238	1035
213.305	461
213.373	735
213.440	778
213.507	1396
213.574	2083
213.641	577
213.709	688
213.776	2323
213.843	2077
213.910	1428
213.977	584
214.045	794
214.112	1105
214.179	979
214.246	882
214.313	1005
214.380	976
214.447	1667
214.515	570
214.582	580
214.649	1064
214.716	1457
214.783	1061
214.850	1105
214.917	1414
214.984	1457
215.051	1479
215.118	1675
215.185	1075
215.253	896
215.320	957
215.387	962
215.454	758
215.521	1055
215.588	648
215.655	1287
215.722	2055
215.789	1496
215.856	2022
215.923	1841
215.990	892
216.057	330
216.124	1128
216.191	1973
216.258	438
216.325	769
216.391	2042
216.458	1186
216.525	1493
216.592	5387
216.659	4155
216.726	1919
216.793	2337
216.860	911
216.927	1229
216.994	1510
217.061	1905
217.127	873
217.194	1889
217.261	2380
217.328	2806
217.395	1852
217.462	1319
217.529	1900
217.595	594
217.662	1589
217.729	3723
217.796	4077
217.863	560
217.929	1430
217.996	1077
218.063	805
218.130	844
218.196	-90
218.263	207
218.330	274
218.397	289
218.463	843
218.530	1167
218.597	5202
218.664	5036
218.730	1685
218.797	374
218.864	787
218.930	970
218.997	796
219.064	1575
219.131	4806
219.197	1684
219.264	643
219.331	342
219.397	397
219.464	593
219.530	3453
219.597	1127
219.664	439
219.730	1033
219.797	354
219.864	774
219.930	2350
219.997	5774
220.063	2785
220.130	1018
220.196	372
220.263	1453
220.330	1773
220.396	3620
220.463	2492
220.529	1507
220.596	916
220.662	1147
220.729	7746
220.795	3603
220.862	3935
220.928	8081
220.995	9143
221.061	9925
221.128	8494
221.194	2257
221.261	1871
221.327	1074
221.394	839
221.460	439
221.526	1817
221.593	10483
221.659	5986
221.726	6487
221.792	4523
221.859	1487
221.925	1889
221.991	1855
222.058	1654
222.124	1776
222.190	1133
222.257	1408
222.323	1208
222.390	874
222.456	336
222.522	291
222.589	801
222.655	1281
222.721	1360
222.788	819
222.854	1376
222.920	877
222.986	955
223.053	375
223.119	495
223.185	219
223.251	8
223.318	1080
223.384	1012
223.450	-575
223.516	557
223.583	162
223.649	174
223.715	-261
223.781	954
223.848	-308
223.914	728
223.980	552
224.046	383
224.112	596
224.178	251
224.245	85
224.311	375
224.377	810
224.443	250
224.509	478
224.575	1156
224.641	1221
224.708	85
224.774	704
224.840	1699
224.906	420
224.972	555
225.038	1489
225.104	239
225.170	1309
225.236	1350
225.302	945
225.368	983
225.434	395
225.500	1089
225.566	671
225.632	583
225.699	417
225.765	607
225.831	534
225.897	3681
225.963	2546
226.028	1494
226.094	1958
226.160	1703
226.226	5167
226.292	10880
226.358	4662
226.424	3011
226.490	1985
226.556	2141
226.622	2345
226.688	4605
226.754	3417
226.820	15272
226.886	12026
226.951	2576
227.017	2819
227.083	2060
227.149	3333
227.215	2294
227.281	1396
227.347	2040
227.412	1870
227.478	3186
227.544	5118
227.610	2651
227.676	1906
227.742	1800
227.807	758
227.873	1830
227.939	4242
228.005	1035
228.070	247
228.136	892
228.202	725
228.268	1051
228.333	2826
228.399	2873
228.465	1120
228.531	774
228.596	700
228.662	5325
228.728	2683
228.793	1489
228.859	449
228.925	2294
228.990	1597
229.056	2055
229.122	761
229.187	2136
229.253	1106
229.319	1526
229.384	2193
229.450	873
229.516	-710
229.581	1360
229.647	1453
229.712	8288
229.778	7273
229.844	4140
229.909	4208
229.975	3350
230.040	2458
230.106	2695
230.171	1232
230.237	4073
230.302	4693
230.368	1955
230.433	1671
230.499	2192
230.564	986
230.630	663
230.695	800
230.761	519
230.826	4118
230.892	2105
230.957	919
231.023	1217
231.088	855
231.154	1280
231.219	2942
231.285	3241
231.350	635
231.415	693
231.481	797
231.546	671
231.612	725
231.677	849
231.742	1067
231.808	847
231.873	-149
231.938	3591
232.004	3994
232.069	1350
232.135	1125
232.200	895
232.265	856
232.330	507
232.396	615
232.461	1113
232.526	487
232.592	1269
232.657	5016
232.722	3194
232.788	1764
232.853	1981
232.918	801
232.983	1482
233.048	4291
233.114	3532
233.179	7209
233.244	8586
233.309	2131
233.375	1978
233.440	1250
233.505	1077
233.570	927
233.635	1125
233.700	5559
233.766	7232
233.831	2459
233.896	2945
233.961	2745
234.026	2344
234.091	1352
234.156	2031
234.222	4512
234.287	17507
234.352	15414
234.417	7538
234.482	4047
234.547	2895
234.612	2130
234.677	4723
234.742	18760
234.807	10467
234.872	2661
234.937	2424
235.002	1776
235.067	1869
235.132	2117
235.197	1717
235.262	1059
235.327	2054
235.392	2908
235.457	3193
235.522	1872
235.587	2406
235.652	1411
235.717	1093
235.782	2666
235.847	9804
235.912	10907
235.977	12029
236.042	4041
236.107	3522
236.172	3660
236.236	1691
236.301	2369
236.366	5218
236.431	10846
236.496	4726
236.561	5658
236.626	22917
236.691	13627
236.755	6859
236.820	7850
236.885	4406
236.950	4253
237.015	4290
237.079	4799
237.144	6953
237.209	22233
237.274	42867
237.339	19245
237.403	8259
237.468	7358
237.533	4391
237.598	3454
237.662	2734
237.727	3008
237.792	5868
237.856	6944
237.921	4091
237.986	8017
238.050	7889
238.115	21676
238.180	18291
238.245	10698
238.309	6213
238.374	5575
238.438	4692
238.503	2260
238.568	3128
238.632	1534
238.697	3004
238.762	10233
238.826	13518
238.891	5288
238.955	5388
239.020	2854
239.085	3770
239.149	2032
239.214	1930
239.278	2135
239.343	1995
239.407	3488
239.472	22661
239.536	16124
239.601	4472
239.665	2518
239.730	2117
239.794	7585
239.859	17548
239.923	6290
239.988	3463
240.052	3403
240.117	2778
240.181	2816
240.246	2380
240.310	2831
240.374	14167
240.439	22145
240.503	6070
240.568	11547
240.632	13522
240.696	4096
240.761	2753
240.825	2111
240.890	1956
240.954	12748
241.018	23876
241.083	11014
241.147	3391
241.211	6202
241.276	12702
241.340	4840
241.404	3000
241.469	3156
241.533	2220
241.597	1574
241.661	2517
241.726	3370
241.790	2583
241.854	2350
241.919	2223
241.983	2069
242.047	1851
242.111	1605
242.175	1850
242.240	2572
242.304	2602
242.368	3764
242.432	2137
242.496	1181
242.561	2223
242.625	1755
242.689	1562
242.753	2400
242.817	2618
242.881	2539
242.946	3232
243.010	3099
243.074	3109
243.138	2155
243.202	2583
243.266	2228
243.330	2703
243.394	13997
243.458	38005
243.522	11679
243.586	5435
243.651	2738
243.715	4349
243.779	5229
243.843	6121
243.907	12474
243.971	8199
244.035	4397
244.099	3461
244.163	6414
244.227	7471
244.291	6416
244.355	5028
244.419	3966
244.483	4216
244.546	2736
244.610	3042
244.674	4638
244.738	4942
244.802	2741
244.866	2083
244.930	2051
244.994	2958
245.058	3264
245.122	5226
245.186	3761
245.249	5045
245.313	3902
245.377	3748
245.441	2005
245.505	3383
245.569	3960
245.632	3264
245.696	13508
245.760	6224
245.824	3990
245.888	2958
245.951	3595
246.015	4108
246.079	5517
246.143	17824
246.207	27722
246.270	10763
246.334	6364
246.398	7467
246.461	12372
246.525	6915
246.589	5758
246.653	5419
246.716	7413
246.780	7879
246.844	9973
246.907	4021
246.971	4681
247.035	5011
247.098	4318
247.162	16414
247.226	39133
247.289	16048
247.353	6824
247.416	14056
247.480	7392
247.544	6027
247.607	8889
247.671	5344
247.734	4127
247.798	4993
247.861	16552
247.925	33551
247.989	11304
248.052	5723
248.116	6809
248.179	12011
248.243	59151
248.306	55438
248.370	35203
248.433	12704
248.497	10352
248.560	15257
248.624	17999
248.687	23270
248.751	59631
248.814	28451
248.877	29789
248.941	43591
249.004	72298
249.068	55598
249.131	19261
249.194	12580
249.258	16247
249.321	11096
249.385	7380
249.448	6121
249.511	8389
249.575	15161
249.638	10243
249.701	6491
249.765	6085
249.828	8801
249.891	6729
249.955	5638
250.018	22954
250.081	28338
250.145	11749
250.208	8342
250.271	8646
250.334	7720
250.398	6922
250.461	9013
250.524	11843
250.587	47616
250.651	71522
250.714	24697
250.777	14539
250.840	8870
250.903	8450
250.967	15087
251.030	35181
251.093	16072
251.156	15025
251.219	12098
251.282	14285
251.345	66235
251.409	54362
251.472	29603
251.535	118078
251.598	70098
251.661	26863
251.724	40241
251.787	37515
251.850	78167
251.913	38448
251.976	15440
252.039	12740
252.103	12024
252.166	28850
252.229	66908
252.292	55176
252.355	111160
252.418	43240
252.481	24980
252.544	17621
252.607	17659
252.670	48956
252.733	48870
252.796	101685
252.858	66734
252.921	40442
252.984	23072
253.047	17517
253.110	11811
253.173	14368
253.236	12988
253.299	17370
253.362	14589
253.425	15588
253.488	35294
253.550	20509
253.613	25184
253.676	24813
253.739	10882
253.802	16483
253.865	14584
253.928	10022
253.990	22139
254.053	34183
254.116	27125
254.179	21923
254.242	10744
254.304	21253
254.367	23159
254.430	18696
254.493	23607
254.555	39083
254.618	21565
254.681	12522
254.743	10963
254.806	10111
254.869	25510
254.932	25363
254.994	10406
255.057	9886
255.120	5627
255.182	5320
255.245	6393
255.308	4403
255.370	3628
255.433	3710
255.496	4113
255.558	3811
255.621	4719
255.683	3405
255.746	4150
255.809	2965
255.871	3510
255.934	2669
255.996	3435
256.059	3044
256.121	6744
256.184	21879
256.246	15182
256.309	12997
256.371	6073
256.434	4389
256.496	3744
256.559	3437
256.621	7845
256.684	12169
256.746	29970
256.809	10166
256.871	6024
256.934	5902
256.996	7645
257.059	5753
257.121	3907
257.183	3595
257.246	2509
257.308	2782
257.371	8532
257.433	40261
257.495	37759
257.558	26475
257.620	17192
257.683	8478
257.745	9366
257.807	4648
257.870	5127
257.932	3385
257.994	4006
258.056	3586
258.119	5345
258.181	15862
258.243	7469
258.306	5093
258.368	18805
258.430	16114
258.492	26749
258.555	32383
258.617	7058
258.679	6930
258.741	12967
258.803	5869
258.866	3839
258.928	3898
258.990	3985
259.052	6300
259.114	9765
259.177	4793
259.239	5841
259.301	17122
259.363	10380
259.425	4278
259.487	4732
259.549	4457
259.611	5107
259.674	4923
259.736	23053
259.798	43222
259.860	64244
259.922	49955
259.984	14488
260.046	6198
260.108	5636
260.170	4066
260.232	3609
260.294	4084
260.356	4116
260.418	9432
260.480	16059
260.542	12703
260.604	36093
260.666	47816
260.728	10551
260.790	8946
260.852	7138
260.914	6388
260.976	6069
261.038	13358
261.100	45224
261.161	34898
261.223	10101
261.285	21801
261.347	31026
261.409	8859
261.471	6271
261.533	4043
261.595	4811
261.656	13999
261.718	33988
261.780	12272
261.842	7759
261.904	5492
261.966	7477
262.027	6176
262.089	15280
262.151	9852
262.213	5570
262.274	16690
262.336	11755
262.398	5519
262.460	14552
262.521	32904
262.583	8867
262.645	5180
262.706	9230
262.768	32285
262.830	12006
262.892	6520
262.953	7656
263.015	44305
263.077	97479
263.138	29350
263.200	16860
263.261	7383
263.323	5417
263.385	3258
263.446	4452
263.508	14836
263.569	8946
263.631	3705
263.693	2647
263.754	2800
263.816	2206
263.877	1646
263.939	2358
264.000	5915
264.062	13674
264.123	6155
264.185	2454
264.246	2475
264.308	11027
264.369	22058
264.431	6701
264.492	3343
264.554	7575
264.615	17093
264.677	6215
264.738	3355
264.800	2451
264.861	2696
264.922	2416
264.984	1798
265.045	2195
265.107	3125
265.168	12863
265.229	9778
265.291	2860
265.352	2696
265.413	1952
265.475	1086
265.536	2779
265.597	2124
265.659	2334
265.720	993
265.781	1776
265.843	439
265.904	3747
265.965	24423
266.026	14918
266.088	5717
266.149	6262
266.210	2700
266.271	1893
266.333	2744
266.394	3897
266.455	1712
266.516	1909
266.577	8364
266.639	14433
266.700	3662
266.761	2554
266.822	1587
266.883	4325
266.944	1845
267.005	1952
267.067	1517
267.128	2094
267.189	-16
267.250	2794
267.311	2022
267.372	217
267.433	1585
267.494	1725
267.555	1585
267.616	1012
267.677	1991
267.738	1851
267.799	8052
267.860	19399
267.921	7808
267.982	5517
268.043	2428
268.104	3498
268.165	2019
268.226	2055
268.287	1608
268.348	2617
268.409	3459
268.470	1261
268.531	669
268.592	2363
268.653	1815
268.714	1407
268.775	2104
268.836	11947
268.896	14385
268.957	5979
269.018	2045
269.079	2386
269.140	1407
269.201	2936
269.262	1444
269.322	2083
269.383	3084
269.444	4594
269.505	6473
269.565	8921
269.626	4913
269.687	2724
269.748	2721
269.809	4877
269.869	9047
269.930	2788
269.991	2379
270.051	1426
270.112	1612
270.173	2654
270.234	579
270.294	2989
270.355	3319
270.416	1389
270.476	2297
270.537	8783
270.598	19457
270.658	8012
270.719	3715
270.779	6526
270.840	4113
270.901	3987
270.961	3682
271.022	3987
271.082	8733
271.143	9170
271.203	3040
271.264	3343
271.325	5307
271.385	19403
271.446	8653
271.506	4057
271.567	4962
271.627	3937
271.688	4350
271.748	13344
271.809	55939
271.869	74662
271.930	18437
271.990	33997
272.050	63431
272.111	14757
272.171	8554
272.232	10302
272.292	46441
272.352	22234
272.413	15501
272.473	13900
272.534	14692
272.594	10532
272.654	12424
272.715	25101
272.775	9977
272.835	7964
272.896	4498
272.956	5592
273.016	10864
273.077	8266
273.137	5079
273.197	5254
273.257	26960
273.318	57486
273.378	19128
273.438	20128
273.498	47344
273.559	16915
273.619	29265
273.679	65130
273.739	20580
273.799	11043
273.860	33119
273.920	61961
273.980	13897
274.040	8735
274.100	13184
274.160	75886
274.221	64374
274.281	50667
274.341	52887
274.401	34372
274.461	12632
274.521	12338
274.581	55301
274.641	72229
274.701	24253
274.761	10756
274.821	31001
274.882	101653
274.942	77464
275.002	41818
275.062	16142
275.122	8910
275.182	7732
275.242	10343
275.302	18495
275.362	16868
275.421	11090
275.481	41043
275.541	86942
275.601	45705
275.661	23916
275.721	15858
275.781	8702
275.841	6113
275.901	7372
275.961	6227
276.021	4898
276.081	12441
276.140	37125
276.200	14788
276.260	10109
276.320	6371
276.380	8436
276.440	5884
276.499	3735
276.559	3493
276.619	7230
