'Start Wavelength	183.833
'End Wavelength	1047.133
'Gate Delay	5.000
'Gate Width (ms)	1.050
'Laser Output Level	0.000
'X Position	0.000
'Y Position	0.000
'Z Position	0.000
'Grid Point Number	1.000
'Shot Number	100.000
183.833	345.000
183.903	23.000
183.973	14
184.042	644
184.112	528
184.182	521
184.252	-87
184.321	-306
184.391	113
184.461	-44
184.531	-82
184.600	-231
184.670	56
184.740	-491
184.809	351
184.879	-147
184.949	153
185.018	671
185.088	-688
185.158	-155
185.228	-158
185.297	384
185.367	141
185.436	-511
185.506	55
185.576	438
185.645	1264
185.715	148
185.785	-44
185.854	189
185.924	73
185.993	-104
186.063	-519
186.133	-25
186.202	7
186.272	528
186.341	-319
186.411	-174
186.481	331
186.550	427
186.620	-946
186.689	349
186.759	110
186.828	103
186.898	35
186.967	376
187.037	596
187.106	-58
187.176	-230
187.246	296
187.315	83
187.385	496
187.454	-528
187.524	245
187.593	-591
187.662	13
187.732	460
187.801	314
187.871	-437
187.940	178
188.010	-170
188.079	-133
188.149	95
188.218	957
188.288	-296
188.357	-354
188.426	51
188.496	-5
188.565	74
188.635	50
188.704	-699
188.773	293
188.843	112
188.912	-303
188.981	277
189.051	-59
189.120	268
189.190	-170
189.259	82
189.328	198
189.398	277
189.467	-97
189.536	-621
189.606	197
189.675	-232
189.744	-478
189.813	40
189.883	-210
189.952	-19
190.021	1030
190.091	1669
190.160	78
190.229	3
190.298	-70
190.368	-845
190.437	-317
190.506	25
190.575	-264
190.645	388
190.714	-68
190.783	398
190.852	1053
190.922	218
190.991	44
191.060	-182
191.129	-275
191.198	166
191.268	-172
191.337	326
191.406	793
191.475	178
191.544	199
191.613	-782
191.683	516
191.752	268
191.821	-68
191.890	-372
191.959	255
192.028	358
192.097	-512
192.166	-206
192.236	290
192.305	-411
192.374	200
192.443	431
192.512	-27
192.581	-172
192.650	628
192.719	-527
192.788	335
192.857	-154
192.926	664
192.995	431
193.064	1064
193.133	1128
193.202	1267
193.271	422
193.340	647
193.409	835
193.478	612
193.547	1367
193.616	1611
193.685	86
193.754	1019
193.823	594
193.892	-65
193.961	-102
194.030	209
194.099	-517
194.168	1052
194.237	105
194.306	574
194.375	369
194.444	544
194.513	185
194.582	865
194.651	129
194.720	213
194.788	293
194.857	160
194.926	-355
194.995	765
195.064	-137
195.133	-159
195.202	581
195.270	31
195.339	44
195.408	-402
195.477	14
195.546	-204
195.615	235
195.683	-509
195.752	-327
195.821	526
195.890	660
195.959	286
196.027	158
196.096	533
196.165	-58
196.234	301
196.303	-399
196.371	274
196.440	23
196.509	203
196.578	630
196.646	229
196.715	295
196.784	221
196.853	226
196.921	166
196.990	-200
197.059	87
197.127	16
197.196	74
197.265	-146
197.333	-84
197.402	164
197.471	276
197.539	-59
197.608	1110
197.677	1577
197.745	182
197.814	1817
197.883	223
197.951	1789
198.020	1127
198.088	1001
198.157	381
198.226	1411
198.294	1052
198.363	-160
198.431	372
198.500	938
198.569	2388
198.637	909
198.706	705
198.774	1878
198.843	1773
198.911	269
198.980	385
199.048	82
199.117	807
199.185	478
199.254	1124
199.322	340
199.391	143
199.459	110
199.528	-3
199.596	891
199.665	645
199.733	329
199.802	-110
199.870	-628
199.939	156
200.007	67
200.076	-295
200.144	-288
200.213	-274
200.281	-709
200.349	233
200.418	947
200.486	478
200.555	308
200.623	-111
200.691	302
200.760	133
200.828	-540
200.897	816
200.965	63
201.033	-54
201.102	119
201.170	1118
201.238	-95
201.307	98
201.375	-138
201.443	262
201.512	24
201.580	476
201.648	73
201.716	-20
201.785	-137
201.853	436
201.921	-230
201.990	50
202.058	-298
202.126	-575
202.194	-757
202.263	-346
202.331	-590
202.399	-109
202.467	59
202.536	327
202.604	234
202.672	220
202.740	610
202.808	686
202.877	-157
202.945	352
203.013	265
203.081	369
203.149	150
203.218	-531
203.286	-228
203.354	-22
203.422	-475
203.490	604
203.558	-547
203.626	518
203.695	-416
203.763	131
203.831	746
203.899	387
203.967	314
204.035	-172
204.103	-212
204.171	-258
204.239	422
204.307	-207
204.375	116
204.443	-547
204.512	-106
204.580	-493
204.648	-109
204.716	-17
204.784	220
204.852	-319
204.920	325
204.988	-231
205.056	-376
205.124	-224
205.192	135
205.260	321
205.328	-103
205.396	298
205.464	522
205.532	817
205.600	-86
205.667	215
205.735	1657
205.803	3508
205.871	295
205.939	778
206.007	28
206.075	-4
206.143	-1
206.211	64
206.279	530
206.347	383
206.414	321
206.482	-300
206.550	440
206.618	-68
206.686	51
206.754	1596
206.822	162
206.889	-656
206.957	1166
207.025	91
207.093	5
207.161	324
207.229	311
207.296	-245
207.364	179
207.432	116
207.500	-21
207.567	360
207.635	-390
207.703	465
207.771	-541
207.839	271
207.906	178
207.974	69
208.042	-18
208.109	-152
208.177	314
208.245	1103
208.313	83
208.380	1026
208.448	-221
208.516	368
208.583	992
208.651	927
208.719	585
208.786	333
208.854	448
208.922	-362
208.989	393
209.057	278
209.125	683
209.192	-49
209.260	-112
209.327	428
209.395	602
209.463	577
209.530	-312
209.598	1185
209.665	192
209.733	22
209.801	766
209.868	-221
209.936	297
210.003	-84
210.071	787
210.138	775
210.206	1374
210.273	758
210.341	526
210.408	38
210.476	649
210.543	667
210.611	-40
210.678	99
210.746	105
210.813	588
210.881	518
210.948	-30
211.016	541
211.083	534
211.151	460
211.218	623
211.285	572
211.353	682
211.420	490
211.488	277
211.555	885
211.622	545
211.690	147
211.757	628
211.825	444
211.892	1077
211.959	404
212.027	454
212.094	115
212.161	773
212.229	1543
212.296	3217
212.363	11986
212.431	3970
212.498	1474
212.565	291
212.633	-119
212.700	797
212.767	479
212.835	667
212.902	694
212.969	200
213.036	426
213.104	176
213.171	135
213.238	688
213.305	510
213.373	871
213.440	405
213.507	373
213.574	497
213.641	198
213.709	-822
213.776	307
213.843	14
213.910	666
213.977	154
214.045	622
214.112	-106
214.179	726
214.246	-315
214.313	871
214.380	-48
214.447	378
214.515	634
214.582	821
214.649	98
214.716	467
214.783	-3
214.850	1113
214.917	1388
214.984	1292
215.051	1505
215.118	1310
215.185	-50
215.253	697
215.320	33
215.387	237
215.454	-28
215.521	13
215.588	7
215.655	615
215.722	-210
215.789	-402
215.856	661
215.923	222
215.990	-590
216.057	-224
216.124	-249
216.191	-164
216.258	-309
216.325	-440
216.391	-132
216.458	46
216.525	323
216.592	1219
216.659	901
216.726	1841
216.793	2564
216.860	2110
216.927	952
216.994	569
217.061	365
217.127	968
217.194	826
217.261	2894
217.328	4635
217.395	2805
217.462	855
217.529	1252
217.595	316
217.662	-75
217.729	700
217.796	1396
217.863	241
217.929	362
217.996	-748
218.063	-90
218.130	-300
218.196	-321
218.263	-182
218.330	-448
218.397	-192
218.463	-218
218.530	-30
218.597	351
218.664	360
218.730	28
218.797	30
218.864	-74
218.930	-134
218.997	-598
219.064	402
219.131	27
219.197	81
219.264	-459
219.331	453
219.397	-399
219.464	93
219.530	474
219.597	171
219.664	-48
219.730	455
219.797	-179
219.864	724
219.930	191
219.997	869
220.063	636
220.130	563
220.196	657
220.263	920
220.330	2235
220.396	6547
220.463	4339
220.529	1103
220.596	1038
220.662	764
220.729	6358
220.795	4175
220.862	5451
220.928	13245
220.995	11204
221.061	9553
221.128	6560
221.194	1176
221.261	1311
221.327	801
221.394	-87
221.460	375
221.526	393
221.593	7295
221.659	4445
221.726	4457
221.792	3271
221.859	1039
221.925	134
221.991	63
222.058	-118
222.124	650
222.190	336
222.257	-158
222.323	-318
222.390	-82
222.456	-174
222.522	-359
222.589	334
222.655	-93
222.721	119
222.788	-482
222.854	-372
222.920	-511
222.986	-243
223.053	-1095
223.119	53
223.185	-569
223.251	127
223.318	-585
223.384	-464
223.450	-553
223.516	48
223.583	-471
223.649	-496
223.715	-337
223.781	49
223.848	-523
223.914	-307
223.980	-90
224.046	-1051
224.112	-622
224.178	-723
224.245	191
224.311	-538
224.377	-837
224.443	-392
224.509	-558
224.575	-273
224.641	-275
224.708	121
224.774	-165
224.840	704
224.906	-85
224.972	-102
225.038	-1396
225.104	-582
225.170	256
225.236	-783
225.302	-672
225.368	-613
225.434	-434
225.500	-319
225.566	-262
225.632	-146
225.699	659
225.765	557
225.831	151
225.897	324
225.963	877
226.028	539
226.094	458
226.160	814
226.226	7333
226.292	17462
226.358	6121
226.424	1906
226.490	413
226.556	798
226.622	657
226.688	1626
226.754	3611
226.820	23164
226.886	19776
226.951	4978
227.017	1824
227.083	1135
227.149	129
227.215	204
227.281	-94
227.347	-56
227.412	993
227.478	1663
227.544	1553
227.610	94
227.676	-233
227.742	279
227.807	480
227.873	854
227.939	12
228.005	-724
228.070	164
228.136	218
228.202	-182
228.268	210
228.333	-847
228.399	-56
228.465	-871
228.531	-580
228.596	-718
228.662	205
228.728	-70
228.793	-424
228.859	-486
228.925	546
228.990	-872
229.056	138
229.122	-955
229.187	-363
229.253	-849
229.319	-544
229.384	388
229.450	-421
229.516	-393
229.581	541
229.647	-631
229.712	331
229.778	-50
229.844	-723
229.909	542
229.975	-304
230.040	-967
230.106	-675
230.171	207
230.237	1289
230.302	-266
230.368	-69
230.433	449
230.499	-265
230.564	174
230.630	-470
230.695	-154
230.761	-946
230.826	320
230.892	-369
230.957	-586
231.023	-704
231.088	-543
231.154	27
231.219	134
231.285	299
231.350	-756
231.415	23
231.481	-873
231.546	-84
231.612	-450
231.677	-581
231.742	-484
231.808	-787
231.873	-1275
231.938	72
232.004	218
232.069	-482
232.135	92
232.200	-429
232.265	-427
232.330	-888
232.396	-657
232.461	-315
232.526	-605
232.592	238
232.657	-117
232.722	-429
232.788	82
232.853	-388
232.918	-251
232.983	-729
233.048	-330
233.114	323
233.179	545
233.244	948
233.309	-585
233.375	395
233.440	-390
233.505	-506
233.570	-597
233.635	-426
233.700	-610
233.766	707
233.831	-955
233.896	-641
233.961	336
234.026	-740
234.091	-905
234.156	-323
234.222	665
234.287	2684
234.352	2293
234.417	1008
234.482	387
234.547	-383
234.612	-355
234.677	299
234.742	1573
234.807	883
234.872	441
234.937	-248
235.002	-165
235.067	245
235.132	367
235.197	63
235.262	-308
235.327	-12
235.392	-44
235.457	272
235.522	31
235.587	-454
235.652	-214
235.717	116
235.782	189
235.847	1260
235.912	928
235.977	769
236.042	520
236.107	-157
236.172	-47
236.236	337
236.301	283
236.366	1642
236.431	1589
236.496	1435
236.561	3548
236.626	27907
236.691	19250
236.755	3942
236.820	2906
236.885	1919
236.950	662
237.015	2045
237.079	2653
237.144	7458
237.209	26208
237.274	49225
237.339	14479
237.403	4169
237.468	2667
237.533	2100
237.598	1419
237.662	872
237.727	1871
237.792	5038
237.856	1853
237.921	423
237.986	1797
238.050	531
238.115	5308
238.180	5685
238.245	962
238.309	566
238.374	-337
238.438	1610
238.503	249
238.568	565
238.632	1026
238.697	-27
238.762	1038
238.826	1762
238.891	505
238.955	-336
239.020	531
239.085	356
239.149	-28
239.214	-126
239.278	358
239.343	-359
239.407	180
239.472	4937
239.536	3874
239.601	789
239.665	-284
239.730	1581
239.794	3859
239.859	3809
239.923	832
239.988	639
240.052	77
240.117	-193
240.181	-246
240.246	-391
240.310	313
240.374	1683
240.439	4312
240.503	652
240.568	1153
240.632	1684
240.696	-185
240.761	0
240.825	-623
240.890	270
240.954	1682
241.018	4098
241.083	810
241.147	-420
241.211	639
241.276	796
241.340	368
241.404	-945
241.469	751
241.533	848
241.597	-238
241.661	171
241.726	179
241.790	56
241.854	-334
241.919	-80
241.983	-573
242.047	-503
242.111	346
242.175	-46
242.240	628
242.304	8
242.368	-269
242.432	-142
242.496	-241
242.561	-875
242.625	994
242.689	-17
242.753	-409
242.817	109
242.881	68
242.946	-547
243.010	158
243.074	-745
243.138	-774
243.202	195
243.266	-912
243.330	710
243.394	8378
243.458	30168
243.522	7967
243.586	2408
243.651	292
243.715	583
243.779	1384
243.843	2413
243.907	1172
243.971	-161
244.035	283
244.099	477
244.163	53
244.227	1274
244.291	1620
244.355	331
244.419	140
244.483	-174
244.546	-338
244.610	16
244.674	-1186
244.738	-985
244.802	-704
244.866	139
244.930	-888
244.994	-189
245.058	501
245.122	913
245.186	277
245.249	16
245.313	-1030
245.377	1168
245.441	-605
245.505	188
245.569	-181
245.632	-604
245.696	478
245.760	753
245.824	-275
245.888	-925
245.951	978
246.015	-1
246.079	-181
246.143	1744
246.207	2797
246.270	1030
246.334	210
246.398	512
246.461	377
246.525	1296
246.589	317
246.653	-232
246.716	994
246.780	-380
246.844	674
246.907	-421
246.971	-188
247.035	286
247.098	729
247.162	843
247.226	5322
247.289	1128
247.353	166
247.416	221
247.480	251
247.544	-161
247.607	-65
247.671	332
247.734	-433
247.798	414
247.861	1102
247.925	5593
247.989	1176
248.052	282
248.116	681
248.179	692
248.243	11319
248.306	10630
248.370	5051
248.433	1241
248.497	2273
248.560	734
248.624	1203
248.687	2968
248.751	12896
248.814	6104
248.877	3988
248.941	7440
249.004	15325
249.068	10864
249.131	3297
249.194	1198
249.258	2407
249.321	721
249.385	879
249.448	629
249.511	531
249.575	1451
249.638	1188
249.701	1284
249.765	1496
249.828	583
249.891	1716
249.955	714
250.018	3509
250.081	5304
250.145	1625
250.208	862
250.271	2613
250.334	1581
250.398	2042
250.461	2659
250.524	3998
250.587	30018
250.651	53060
250.714	11251
250.777	6480
250.840	3267
250.903	4023
250.967	2857
251.030	7142
251.093	3466
251.156	3450
251.219	3094
251.282	5533
251.345	44819
251.409	39307
251.472	18511
251.535	85920
251.598	54412
251.661	13182
251.724	11735
251.787	13125
251.850	52617
251.913	25248
251.976	7583
252.039	3982
252.103	3076
252.166	6187
252.229	16690
252.292	21143
252.355	63566
252.418	18692
252.481	7012
252.544	4238
252.607	4843
252.670	11696
252.733	21578
252.796	66586
252.858	24087
252.921	7606
252.984	5234
253.047	2960
253.110	2980
253.173	5438
253.236	3990
253.299	2304
253.362	1757
253.425	2532
253.488	4721
253.550	2659
253.613	2067
253.676	654
253.739	838
253.802	2411
253.865	856
253.928	1235
253.990	2050
254.053	4079
254.116	2575
254.179	1504
254.242	446
254.304	1255
254.367	1623
254.430	1294
254.493	2717
254.555	4999
254.618	1443
254.681	473
254.743	368
254.806	707
254.869	3186
254.932	3687
254.994	598
255.057	-154
255.120	220
255.182	-105
255.245	67
255.308	736
255.370	-570
255.433	-310
255.496	-1141
255.558	-715
255.621	-438
255.683	-765
255.746	270
255.809	305
255.871	121
255.934	-771
255.996	-724
256.059	-127
256.121	538
256.184	2129
256.246	1928
256.309	840
256.371	666
256.434	497
256.496	-260
256.559	130
256.621	790
256.684	11083
256.746	42276
256.809	11194
256.871	3474
256.934	1882
256.996	933
257.059	1157
257.121	1556
257.183	638
257.246	-441
257.308	-234
257.371	6090
257.433	50849
257.495	45332
257.558	11538
257.620	4520
257.683	1309
257.745	1332
257.807	1406
257.870	735
257.932	165
257.994	328
258.056	-168
258.119	133
258.181	1101
258.243	292
258.306	-41
258.368	1210
258.430	1904
258.492	3305
258.555	5760
258.617	645
258.679	683
258.741	757
258.803	-105
258.866	91
258.928	105
258.990	-458
259.052	-60
259.114	889
259.177	163
259.239	433
259.301	2142
259.363	647
259.425	928
259.487	519
259.549	-158
259.611	-401
259.674	-227
259.736	3188
259.798	7191
259.860	14395
259.922	10615
259.984	2122
260.046	139
260.108	630
260.170	-191
260.232	-309
260.294	787
260.356	-888
260.418	380
260.480	1595
260.542	1500
260.604	2966
260.666	7258
260.728	1207
260.790	554
260.852	316
260.914	392
260.976	-162
261.038	-513
261.100	6409
261.161	6479
261.223	895
261.285	2492
261.347	4338
261.409	351
261.471	208
261.533	-592
261.595	697
261.656	814
261.718	3068
261.780	-902
261.842	243
261.904	-289
261.966	249
262.027	-108
262.089	800
262.151	775
262.213	497
262.274	-726
262.336	1031
262.398	192
262.460	472
262.521	3230
262.583	789
262.645	-730
262.706	366
262.768	2563
262.830	1249
262.892	331
262.953	327
263.015	10573
263.077	35143
263.138	7996
263.200	2482
263.261	824
263.323	774
263.385	102
263.446	-4
263.508	597
263.569	-32
263.631	-119
263.693	-1059
263.754	750
263.816	-713
263.877	-600
263.939	-1248
264.000	-1069
264.062	551
264.123	-399
264.185	-1342
264.246	-352
264.308	-309
264.369	-169
264.431	-273
264.492	-564
264.554	-314
264.615	-1294
264.677	83
264.738	-875
264.800	-345
264.861	300
264.922	-405
264.984	-70
265.045	-1053
265.107	551
265.168	18969
265.229	16594
265.291	2749
265.352	661
265.413	596
265.475	-64
265.536	-176
265.597	-542
265.659	197
265.720	-1034
265.781	-810
265.843	-124
265.904	3362
265.965	36632
266.026	24180
266.088	4498
266.149	1736
266.210	624
266.271	-479
266.333	-424
266.394	146
266.455	-671
266.516	-738
266.577	-238
266.639	267
266.700	-33
266.761	-469
266.822	-898
266.883	-676
266.944	-871
267.005	-46
267.067	-711
267.128	-1085
267.189	-1338
267.250	-665
267.311	3
267.372	-1425
267.433	-193
267.494	-225
267.555	-1271
267.616	-1052
267.677	-1185
267.738	-1329
267.799	713
267.860	443
267.921	-869
267.982	-511
268.043	-1072
268.104	-1530
268.165	-1114
268.226	-168
268.287	-829
268.348	-799
268.409	-320
268.470	-1167
268.531	-555
268.592	-1397
268.653	-947
268.714	-738
268.775	-447
268.836	-451
268.896	87
268.957	-1014
269.018	-915
269.079	-853
269.140	-1088
269.201	-753
269.262	-1065
269.322	-395
269.383	-1734
269.444	-184
269.505	-1182
269.565	-237
269.626	-900
269.687	-378
269.748	-869
269.809	-945
269.869	-527
269.930	-804
269.991	-1381
270.051	-260
270.112	-679
270.173	-1459
270.234	-1554
270.294	-1154
270.355	-629
270.416	-1225
270.476	-985
270.537	-551
270.598	551
270.658	-514
270.719	-976
270.779	414
270.840	-1056
270.901	-808
270.961	-461
271.022	-305
271.082	-553
271.143	-388
271.203	-942
271.264	-656
271.325	-1369
271.385	1534
271.446	120
271.506	107
271.567	-413
271.627	-844
271.688	115
271.748	-152
271.809	9470
271.869	18549
271.930	2625
271.990	5358
272.050	13528
272.111	2868
272.171	403
272.232	331
272.292	5860
272.352	2112
272.413	320
272.473	-342
272.534	504
272.594	-552
272.654	1068
272.715	2439
272.775	-227
272.835	-27
272.896	-476
272.956	217
273.016	-505
273.077	208
273.137	-183
273.197	-773
273.257	1516
273.318	5883
273.378	844
273.438	966
273.498	2636
273.559	1202
273.619	2721
273.679	9318
273.739	2106
273.799	787
273.860	4111
273.920	11817
273.980	1879
274.040	-10
274.100	1254
274.160	9360
274.221	9992
274.281	7051
274.341	5649
274.401	2825
274.461	603
274.521	81
274.581	8187
274.641	12185
274.701	3444
274.761	1583
274.821	3126
274.882	17549
274.942	13062
275.002	7129
275.062	1665
275.122	563
275.182	240
275.242	250
275.302	1461
275.362	-102
275.421	584
275.481	5708
275.541	16475
275.601	5540
275.661	1768
275.721	186
275.781	11
275.841	-617
275.901	-103
275.961	-211
276.021	-702
276.081	-357
276.140	2524
276.200	792
276.260	-132
276.320	-362
276.380	-195
276.440	90
276.499	188
276.559	-1362
276.619	-283
276.679	1653
276.738	1285
276.798	130
276.858	-100
276.918	239
276.978	-453
277.037	700
277.097	-400
277.157	1642
277.216	44
277.276	-305
277.336	-618
277.395	-821
277.455	-606
277.515	387
277.574	1190
277.634	3307
277.694	310
277.753	3999
277.813	2707
277.873	2836
277.932	12864
277.992	4052
278.051	1942
278.111	3346
278.171	808
278.230	5225
278.290	2884
278.349	1507
278.409	222
278.468	-506
278.528	285
278.587	364
278.647	-23
