'Start Wavelength	183.833
'End Wavelength	1047.133
'Gate Delay	5.000
'Gate Width (ms)	1.050
'Laser Output Level	0.000
'X Position	0.000
'Y Position	0.000
'Z Position	0.000
'Grid Point Number	1.000
'Shot Number	100.000
183.833	1217.000
183.903	-543.000
183.973	559
184.042	907
184.112	119
184.182	305
184.252	970
184.321	265
184.391	387
184.461	7
184.531	11
184.600	357
184.670	166
184.740	567
184.809	402
184.879	278
184.949	502
185.018	231
185.088	388
185.158	256
185.228	741
185.297	270
185.367	-294
185.436	-101
185.506	397
185.576	-380
185.645	663
185.715	226
185.785	626
185.854	366
185.924	23
185.993	-29
186.063	-41
186.133	-34
186.202	44
186.272	-552
186.341	-476
186.411	400
186.481	380
186.550	643
186.620	-367
186.689	-26
186.759	-291
186.828	258
186.898	667
186.967	-500
187.037	330
187.106	-78
187.176	-21
187.246	499
187.315	451
187.385	-117
187.454	514
187.524	389
187.593	-48
187.662	-137
187.732	282
187.801	-35
187.871	577
187.940	-36
188.010	385
188.079	73
188.149	600
188.218	1132
188.288	495
188.357	453
188.426	66
188.496	-305
188.565	237
188.635	-11
188.704	110
188.773	441
188.843	536
188.912	-114
188.981	256
189.051	282
189.120	-444
189.190	267
189.259	-56
189.328	165
189.398	21
189.467	-592
189.536	263
189.606	-252
189.675	481
189.744	535
189.813	131
189.883	35
189.952	1129
190.021	1296
190.091	1649
190.160	345
190.229	194
190.298	248
190.368	138
190.437	382
190.506	280
190.575	-118
190.645	-145
190.714	861
190.783	681
190.852	105
190.922	787
190.991	30
191.060	509
191.129	583
191.198	-40
191.268	34
191.337	138
191.406	-142
191.475	-111
191.544	-77
191.613	23
191.683	-282
191.752	-23
191.821	27
191.890	74
191.959	38
192.028	439
192.097	-76
192.166	682
192.236	267
192.305	400
192.374	-426
192.443	781
192.512	157
192.581	127
192.650	-328
192.719	591
192.788	111
192.857	-96
192.926	-156
192.995	386
193.064	941
193.133	484
193.202	753
193.271	1021
193.340	988
193.409	201
193.478	665
193.547	587
193.616	1090
193.685	467
193.754	508
193.823	661
193.892	750
193.961	-69
194.030	281
194.099	-112
194.168	-427
194.237	79
194.306	192
194.375	329
194.444	111
194.513	-106
194.582	173
194.651	-25
194.720	-83
194.788	23
194.857	510
194.926	15
194.995	502
195.064	118
195.133	-389
195.202	731
195.270	459
195.339	760
195.408	423
195.477	1456
195.546	432
195.615	603
195.683	-200
195.752	-525
195.821	316
195.890	733
195.959	38
196.027	481
196.096	194
196.165	857
196.234	-433
196.303	433
196.371	559
196.440	933
196.509	187
196.578	-355
196.646	140
196.715	-10
196.784	315
196.853	286
196.921	-222
196.990	-140
197.059	200
197.127	441
197.196	180
197.265	294
197.333	-41
197.402	766
197.471	-121
197.539	624
197.608	953
197.677	2782
197.745	882
197.814	2450
197.883	828
197.951	1339
198.020	666
198.088	-47
198.157	71
198.226	2522
198.294	704
198.363	121
198.431	608
198.500	1684
198.569	1928
198.637	1116
198.706	1080
198.774	2257
198.843	1546
198.911	205
198.980	-5
199.048	24
199.117	269
199.185	42
199.254	50
199.322	226
199.391	-686
199.459	366
199.528	-8
199.596	0
199.665	348
199.733	-229
199.802	761
199.870	-111
199.939	-28
200.007	891
200.076	-33
200.144	361
200.213	316
200.281	276
200.349	400
200.418	1158
200.486	-204
200.555	605
200.623	8
200.691	306
200.760	-34
200.828	-126
200.897	-116
200.965	467
201.033	208
201.102	481
201.170	0
201.238	6
201.307	-255
201.375	654
201.443	143
201.512	365
201.580	544
201.648	-156
201.716	527
201.785	432
201.853	235
201.921	695
201.990	886
202.058	354
202.126	-436
202.194	255
202.263	39
202.331	423
202.399	-448
202.467	20
202.536	1828
202.604	780
202.672	137
202.740	-41
202.808	-32
202.877	357
202.945	-29
203.013	459
203.081	6
203.149	-74
203.218	-346
203.286	55
203.354	-351
203.422	413
203.490	-42
203.558	832
203.626	223
203.695	28
203.763	-575
203.831	326
203.899	-123
203.967	28
204.035	517
204.103	-229
204.171	-35
204.239	398
204.307	62
204.375	297
204.443	-228
204.512	208
204.580	553
204.648	200
204.716	-7
204.784	484
204.852	-165
204.920	6
204.988	61
205.056	-472
205.124	6
205.192	239
205.260	-507
205.328	324
205.396	291
205.464	210
205.532	75
205.600	-199
205.667	257
205.735	2032
205.803	2567
205.871	851
205.939	1078
206.007	83
206.075	-478
206.143	-195
206.211	405
206.279	-112
206.347	149
206.414	834
206.482	-33
206.550	38
206.618	140
206.686	111
206.754	139
206.822	685
206.889	166
206.957	1262
207.025	539
207.093	131
207.161	-687
207.229	448
207.296	448
207.364	275
207.432	270
207.500	-115
207.567	603
207.635	126
207.703	764
207.771	209
207.839	-4
207.906	374
207.974	413
208.042	692
208.109	296
208.177	1209
208.245	285
208.313	588
208.380	1495
208.448	1096
208.516	-306
208.583	820
208.651	685
208.719	184
208.786	27
208.854	171
208.922	112
208.989	412
209.057	240
209.125	-141
209.192	341
209.260	55
209.327	384
209.395	691
209.463	50
209.530	843
209.598	514
209.665	649
209.733	87
209.801	153
209.868	-222
209.936	1086
210.003	216
210.071	-32
210.138	527
210.206	207
210.273	515
210.341	415
210.408	22
210.476	304
210.543	81
210.611	734
210.678	199
210.746	538
210.813	733
210.881	505
210.948	-503
211.016	810
211.083	-69
211.151	20
211.218	788
211.285	872
211.353	881
211.420	580
211.488	107
211.555	181
211.622	145
211.690	806
211.757	-233
211.825	971
211.892	77
211.959	818
212.027	-204
212.094	-229
212.161	979
212.229	1146
212.296	3715
212.363	12975
212.431	4453
212.498	1862
212.565	1174
212.633	492
212.700	758
212.767	-50
212.835	563
212.902	-405
212.969	499
213.036	545
213.104	17
213.171	1014
213.238	430
213.305	649
213.373	525
213.440	1378
213.507	1091
213.574	661
213.641	289
213.709	-351
213.776	796
213.843	703
213.910	75
213.977	138
214.045	683
214.112	752
214.179	862
214.246	711
214.313	-31
214.380	714
214.447	481
214.515	135
214.582	410
214.649	748
214.716	457
214.783	249
214.850	785
214.917	1133
214.984	2090
215.051	1401
215.118	339
215.185	587
215.253	489
215.320	895
215.387	-84
215.454	275
215.521	180
215.588	366
215.655	592
215.722	61
215.789	287
215.856	713
215.923	1114
215.990	371
216.057	-146
216.124	512
216.191	452
216.258	490
216.325	317
216.391	-233
216.458	191
216.525	1027
216.592	2112
216.659	1752
216.726	1158
216.793	2173
216.860	877
216.927	299
216.994	895
217.061	291
217.127	713
217.194	1530
217.261	2073
217.328	2632
217.395	1709
217.462	1267
217.529	189
217.595	335
217.662	409
217.729	2019
217.796	727
217.863	-60
217.929	355
217.996	881
218.063	561
218.130	-20
218.196	667
218.263	-360
218.330	-145
218.397	-122
218.463	186
218.530	637
218.597	1484
218.664	958
218.730	326
218.797	80
218.864	617
218.930	165
218.997	-129
219.064	997
219.131	1192
219.197	287
219.264	178
219.331	112
219.397	-328
219.464	479
219.530	817
219.597	794
219.664	-128
219.730	556
219.797	73
219.864	140
219.930	512
219.997	1881
220.063	1338
220.130	1317
220.196	187
220.263	1627
220.330	1673
220.396	4936
220.463	2339
220.529	1453
220.596	1381
220.662	931
220.729	5599
220.795	3503
220.862	3927
220.928	8954
220.995	9463
221.061	8853
221.128	6023
221.194	1906
221.261	559
221.327	973
221.394	742
221.460	541
221.526	1330
221.593	8892
221.659	4230
221.726	5496
221.792	4408
221.859	1082
221.925	1028
221.991	1181
222.058	369
222.124	1517
222.190	670
222.257	401
222.323	-446
222.390	280
222.456	-404
222.522	-253
222.589	677
222.655	32
222.721	-40
222.788	499
222.854	-338
222.920	321
222.986	-145
223.053	-95
223.119	601
223.185	-339
223.251	170
223.318	651
223.384	-476
223.450	-564
223.516	-401
223.583	-952
223.649	-33
223.715	-143
223.781	-483
223.848	229
223.914	-327
223.980	-110
224.046	383
224.112	-429
224.178	-303
224.245	81
224.311	-330
224.377	98
224.443	-30
224.509	-176
224.575	-170
224.641	-681
224.708	-221
224.774	283
224.840	147
224.906	-167
224.972	-236
225.038	-139
225.104	-331
225.170	73
225.236	277
225.302	117
225.368	-44
225.434	-596
225.500	-14
225.566	57
225.632	65
225.699	-93
225.765	-333
225.831	818
225.897	1365
225.963	1057
226.028	326
226.094	872
226.160	1159
226.226	6284
226.292	11816
226.358	4513
226.424	1397
226.490	1589
226.556	800
226.622	1154
226.688	2018
226.754	3263
226.820	17881
226.886	15380
226.951	3767
227.017	1454
227.083	1387
227.149	954
227.215	224
227.281	-468
227.347	402
227.412	427
227.478	2350
227.544	2820
227.610	886
227.676	505
227.742	-66
227.807	843
227.873	607
227.939	764
228.005	395
228.070	-478
228.136	37
228.202	-28
228.268	-53
228.333	1207
228.399	340
228.465	44
228.531	-17
228.596	156
228.662	560
228.728	60
228.793	52
228.859	420
228.925	868
228.990	-123
229.056	585
229.122	104
229.187	852
229.253	-456
229.319	-124
229.384	-729
229.450	-4
229.516	-928
229.581	1163
229.647	-6
229.712	1653
229.778	2069
229.844	296
229.909	324
229.975	616
230.040	277
230.106	66
230.171	868
230.237	1372
230.302	945
230.368	156
230.433	516
230.499	209
230.564	-359
230.630	529
230.695	532
230.761	-544
230.826	1402
230.892	-34
230.957	187
231.023	-508
231.088	-11
231.154	369
231.219	69
231.285	128
231.350	258
231.415	77
231.481	-2
231.546	322
231.612	-479
231.677	-285
231.742	282
231.808	-108
231.873	-361
231.938	684
232.004	656
232.069	-55
232.135	-202
232.200	263
232.265	106
232.330	-422
232.396	-876
232.461	836
232.526	-358
232.592	-158
232.657	1134
232.722	387
232.788	508
232.853	518
232.918	93
232.983	72
233.048	685
233.114	709
233.179	2201
233.244	2421
233.309	901
233.375	370
233.440	323
233.505	-260
233.570	311
233.635	123
233.700	1708
233.766	1492
233.831	860
233.896	200
233.961	973
234.026	162
234.091	229
234.156	437
234.222	1625
234.287	6704
234.352	4423
234.417	2878
234.482	532
234.547	572
234.612	1232
234.677	874
234.742	5041
234.807	3525
234.872	1345
234.937	911
235.002	698
235.067	42
235.132	1263
235.197	329
235.262	-108
235.327	528
235.392	1320
235.457	670
235.522	1046
235.587	-42
235.652	256
235.717	445
235.782	981
235.847	2665
235.912	3085
235.977	3151
236.042	1083
236.107	968
236.172	954
236.236	1125
236.301	694
236.366	2640
236.431	3226
236.496	1521
236.561	4009
236.626	24537
236.691	16321
236.755	4755
236.820	3260
236.885	1960
236.950	1857
237.015	2282
237.079	2155
237.144	6057
237.209	25024
237.274	41207
237.339	12935
237.403	4790
237.468	2717
237.533	2063
237.598	2164
237.662	1428
237.727	2359
237.792	4382
237.856	2038
237.921	877
237.986	2864
238.050	2225
238.115	9197
238.180	7710
238.245	3728
238.309	2225
238.374	919
238.438	2340
238.503	1082
238.568	1488
238.632	825
238.697	800
238.762	3749
238.826	4270
238.891	1873
238.955	1286
239.020	1463
239.085	833
239.149	1417
239.214	546
239.278	1153
239.343	1638
239.407	1487
239.472	9295
239.536	6557
239.601	1780
239.665	544
239.730	1268
239.794	4910
239.859	6158
239.923	2120
239.988	563
240.052	806
240.117	206
240.181	142
240.246	407
240.310	992
240.374	4553
240.439	7930
240.503	1886
240.568	3612
240.632	4139
240.696	1565
240.761	655
240.825	784
240.890	1580
240.954	4338
241.018	7263
241.083	3104
241.147	-165
241.211	1033
241.276	3314
241.340	1503
241.404	1145
241.469	897
241.533	984
241.597	484
241.661	-173
241.726	1145
241.790	663
241.854	578
241.919	226
241.983	770
242.047	633
242.111	688
242.175	99
242.240	992
242.304	817
242.368	702
242.432	799
242.496	1239
242.561	-161
242.625	227
242.689	-442
242.753	617
242.817	722
242.881	1150
242.946	503
243.010	570
243.074	860
243.138	684
243.202	603
243.266	1272
243.330	1363
243.394	10776
243.458	31299
243.522	8243
243.586	3031
243.651	1678
243.715	1255
243.779	2952
243.843	3569
243.907	2397
243.971	1019
244.035	1295
244.099	301
244.163	1123
244.227	2497
244.291	2343
244.355	966
244.419	937
244.483	428
244.546	260
244.610	1155
244.674	751
244.738	271
244.802	416
244.866	21
244.930	-289
244.994	173
245.058	716
245.122	1938
245.186	1192
245.249	1133
245.313	-711
245.377	999
245.441	-35
245.505	704
245.569	527
245.632	666
245.696	3101
245.760	1107
245.824	543
245.888	91
245.951	1493
246.015	432
246.079	1036
246.143	3601
246.207	9894
246.270	3282
246.334	1783
246.398	1881
246.461	2418
246.525	1957
246.589	1372
246.653	841
246.716	1318
246.780	1785
246.844	2371
246.907	1395
246.971	1185
247.035	1511
247.098	1652
247.162	4338
247.226	14170
247.289	4988
247.353	2153
247.416	3121
247.480	2254
247.544	1280
247.607	1789
247.671	1024
247.734	1303
247.798	1555
247.861	5331
247.925	12882
247.989	3278
248.052	1071
248.116	3182
248.179	3973
248.243	22543
248.306	19693
248.370	13023
248.433	3164
248.497	4464
248.560	3597
248.624	3442
248.687	7554
248.751	24784
248.814	10203
248.877	11007
248.941	16515
249.004	28635
249.068	21748
249.131	6668
249.194	3858
249.258	5348
249.321	2779
249.385	2550
249.448	3126
249.511	2783
249.575	3803
249.638	3851
249.701	2335
249.765	3067
249.828	3143
249.891	3310
249.955	2300
250.018	9459
250.081	9988
250.145	4396
250.208	3523
250.271	3852
250.334	4249
250.398	3549
250.461	4795
250.524	5890
250.587	35571
250.651	56181
250.714	14151
250.777	8063
250.840	5412
250.903	5401
250.967	6729
251.030	15400
251.093	8432
251.156	6571
251.219	5798
251.282	9286
251.345	50675
251.409	42327
251.472	22682
251.535	95607
251.598	55480
251.661	16939
251.724	19513
251.787	21079
251.850	58381
251.913	27126
251.976	10206
252.039	7021
252.103	6277
252.166	11671
252.229	28375
252.292	28675
252.355	73130
252.418	25303
252.481	12415
252.544	8275
252.607	8330
252.670	23147
252.733	30664
252.796	73000
252.858	33726
252.921	15071
252.984	8817
253.047	6388
253.110	5388
253.173	8834
253.236	6004
253.299	5158
253.362	4611
253.425	5117
253.488	10807
253.550	7186
253.613	6502
253.676	5849
253.739	3399
253.802	4605
253.865	3770
253.928	3588
253.990	7079
254.053	11545
254.116	7029
254.179	6193
254.242	2495
254.304	4864
254.367	4971
254.430	4403
254.493	7799
254.555	12140
254.618	4906
254.681	3513
254.743	1729
254.806	3530
254.869	9351
254.932	7670
254.994	3145
255.057	1749
255.120	1695
255.182	668
255.245	1905
255.308	1430
255.370	1292
255.433	1194
255.496	1005
255.558	525
255.621	1606
255.683	146
255.746	472
255.809	1165
255.871	869
255.934	538
255.996	379
256.059	365
256.121	1327
256.184	5577
256.246	4130
256.309	2698
256.371	2367
256.434	1137
256.496	431
256.559	1826
256.621	2314
256.684	11066
256.746	33992
256.809	8714
256.871	3087
256.934	2722
256.996	1438
257.059	2372
257.121	1327
257.183	1506
257.246	313
257.308	1461
257.371	6404
257.433	44759
257.495	35437
257.558	13145
257.620	6297
257.683	3342
257.745	2654
257.807	1742
257.870	1357
257.932	1316
257.994	1115
258.056	1280
258.119	1668
258.181	3159
258.243	1817
258.306	989
258.368	4532
258.430	4990
258.492	8373
258.555	10349
258.617	1989
258.679	2411
258.741	2704
258.803	1337
258.866	1174
258.928	1716
258.990	1352
259.052	1636
259.114	2309
259.177	1632
259.239	2363
259.301	6825
259.363	2731
259.425	694
259.487	1554
259.549	1805
259.611	391
259.674	1554
259.736	7757
259.798	15148
259.860	24446
259.922	18730
259.984	4479
260.046	2665
260.108	2271
260.170	1345
260.232	1073
260.294	2163
260.356	1331
260.418	2175
260.480	5673
260.542	3943
260.604	9861
260.666	14697
260.728	3191
260.790	2740
260.852	1087
260.914	2475
260.976	979
261.038	2939
261.100	14566
261.161	12328
261.223	2798
261.285	6546
261.347	8551
261.409	1996
261.471	2095
261.533	1007
261.595	760
261.656	3665
261.718	8618
261.780	2197
261.842	2300
261.904	1677
261.966	2116
262.027	2161
262.089	3144
262.151	2648
262.213	1054
262.274	3069
262.336	1629
262.398	725
262.460	4345
262.521	8622
262.583	2477
262.645	639
262.706	1627
262.768	8431
262.830	3641
262.892	2383
262.953	1968
263.015	18629
263.077	47553
263.138	12418
263.200	4469
263.261	2676
263.323	2545
263.385	1636
263.446	1435
263.508	2555
263.569	1665
263.631	1550
263.693	49
263.754	608
263.816	428
263.877	-40
263.939	-266
264.000	585
264.062	2353
264.123	667
264.185	88
264.246	475
264.308	879
264.369	4799
264.431	1690
264.492	217
264.554	1920
264.615	2694
264.677	1959
264.738	472
264.800	-543
264.861	421
264.922	91
264.984	8
265.045	-82
265.107	756
265.168	14020
265.229	11284
265.291	1896
265.352	1042
265.413	711
265.475	440
265.536	-213
265.597	-291
265.659	-372
265.720	398
265.781	-301
265.843	-467
265.904	2923
265.965	28813
266.026	16262
266.088	3669
266.149	2057
266.210	863
266.271	177
266.333	628
266.394	1015
266.455	470
266.516	-382
266.577	397
266.639	2486
266.700	129
266.761	-95
266.822	-585
266.883	357
266.944	-79
267.005	184
267.067	-58
267.128	-98
267.189	-778
267.250	573
267.311	-125
267.372	-1441
267.433	-603
267.494	66
267.555	-974
267.616	-964
267.677	394
267.738	-1006
267.799	1894
267.860	2812
267.921	1135
267.982	570
268.043	232
268.104	-436
268.165	-774
268.226	-166
268.287	-1147
268.348	-371
268.409	-266
268.470	-191
268.531	-97
268.592	-441
268.653	-656
268.714	-409
268.775	41
268.836	1059
268.896	1644
268.957	443
269.018	-671
269.079	30
269.140	125
269.201	762
269.262	-328
269.322	-714
269.383	-791
269.444	871
269.505	1083
269.565	1154
269.626	-56
269.687	97
269.748	385
269.809	476
269.869	957
269.930	-59
269.991	-538
270.051	-298
270.112	-259
270.173	-823
270.234	-88
270.294	-482
270.355	433
270.416	-604
270.476	833
270.537	1493
270.598	3653
270.658	619
270.719	770
270.779	951
270.840	-272
270.901	269
270.961	560
271.022	752
271.082	1156
271.143	1348
271.203	933
271.264	86
271.325	83
271.385	5331
271.446	2041
271.506	281
271.567	1039
271.627	517
271.688	281
271.748	1924
271.809	21450
271.869	33906
271.930	6914
271.990	12796
272.050	27872
272.111	5890
272.171	2804
272.232	2939
272.292	15928
272.352	7350
272.413	4166
272.473	2286
272.534	3322
272.594	1878
272.654	3878
272.715	6900
272.775	2464
272.835	1728
272.896	1105
272.956	1062
273.016	2739
273.077	1703
273.137	1666
273.197	1385
273.257	7669
273.318	16786
273.378	5069
273.438	6116
273.498	10925
273.559	4237
273.619	9561
273.679	22536
273.739	7106
273.799	3662
273.860	11893
273.920	26180
273.980	5549
274.040	3178
274.100	3593
274.160	25136
274.221	23430
274.281	17106
274.341	14722
274.401	8280
274.461	4193
274.521	2836
274.581	20053
274.641	26474
274.701	10189
274.761	4283
274.821	10380
274.882	39692
274.942	30592
275.002	16991
275.062	4890
275.122	3753
275.182	2092
275.242	3806
275.302	4658
275.362	4209
275.421	3398
275.481	15347
275.541	36547
275.601	13935
275.661	6603
275.721	4056
275.781	2792
275.841	1940
275.901	1638
275.961	2149
276.021	1140
276.081	2820
276.140	8255
276.200	4061
276.260	2468
276.320	1137
276.380	2129
276.440	839
276.499	1212
276.559	878
276.619	1038
276.679	6025
276.738	4437
276.798	1855
276.858	2481
276.918	1545
276.978	719
277.037	1729
277.097	1566
277.157	7227
277.216	2681
277.276	1599
277.336	1819
277.395	1098
277.455	1149
277.515	1593
277.574	4595
277.634	8162
277.694	3263
277.753	11227
277.813	7924
277.873	8611
277.932	27816
277.992	9079
278.051	6606
278.111	8841
278.171	4249
278.230	9074
278.290	7057
278.349	3454
278.409	2286
278.468	2014
278.528	1405
278.587	1593
278.647	2409
