'Start Wavelength	183.833
'End Wavelength	1047.133
'Gate Delay	5.000
'Gate Width (ms)	1.050
'Laser Output Level	0.000
'X Position	0.000
'Y Position	0.000
'Z Position	0.000
'Grid Point Number	1.000
'Shot Number	100.000
183.833	-606.000
183.903	-365.000
183.973	129
184.042	-84
184.112	126
184.182	-443
184.252	-515
184.321	646
184.391	-791
184.461	564
184.531	-411
184.600	-35
184.670	-410
184.740	729
184.809	-520
184.879	171
184.949	283
185.018	846
185.088	-279
185.158	247
185.228	416
185.297	1459
185.367	-218
185.436	809
185.506	-183
185.576	865
185.645	138
185.715	173
185.785	280
185.854	209
185.924	647
185.993	552
186.063	-296
186.133	237
186.202	-825
186.272	373
186.341	-50
186.411	-202
186.481	307
186.550	1497
186.620	499
186.689	77
186.759	-199
186.828	545
186.898	676
186.967	410
187.037	1093
187.106	802
187.176	-114
187.246	573
187.315	-434
187.385	264
187.454	805
187.524	1007
187.593	-28
187.662	851
187.732	486
187.801	670
187.871	718
187.940	274
188.010	-409
188.079	-230
188.149	810
188.218	1155
188.288	865
188.357	449
188.426	152
188.496	1016
188.565	115
188.635	561
188.704	-495
188.773	-167
188.843	637
188.912	389
188.981	367
189.051	462
189.120	-325
189.190	173
189.259	140
189.328	-213
189.398	-246
189.467	-435
189.536	-132
189.606	469
189.675	387
189.744	549
189.813	-334
189.883	598
189.952	-254
190.021	2036
190.091	2661
190.160	1020
190.229	-46
190.298	91
190.368	-361
190.437	129
190.506	-107
190.575	134
190.645	269
190.714	-81
190.783	-287
190.852	297
190.922	210
190.991	82
191.060	-68
191.129	610
191.198	821
191.268	454
191.337	468
191.406	260
191.475	414
191.544	269
191.613	-90
191.683	395
191.752	425
191.821	511
191.890	-150
191.959	506
192.028	-229
192.097	-676
192.166	395
192.236	103
192.305	-76
192.374	27
192.443	262
192.512	662
192.581	-264
192.650	277
192.719	-170
192.788	729
192.857	-161
192.926	128
192.995	297
193.064	1046
193.133	1211
193.202	1624
193.271	361
193.340	1020
193.409	1152
193.478	1476
193.547	2099
193.616	1753
193.685	1064
193.754	669
193.823	-443
193.892	715
193.961	272
194.030	583
194.099	226
194.168	722
194.237	277
194.306	586
194.375	583
194.444	1093
194.513	363
194.582	190
194.651	1310
194.720	144
194.788	32
194.857	504
194.926	631
194.995	708
195.064	348
195.133	322
195.202	569
195.270	947
195.339	173
195.408	112
195.477	538
195.546	511
195.615	562
195.683	1373
195.752	759
195.821	539
195.890	358
195.959	437
196.027	584
196.096	636
196.165	1046
196.234	114
196.303	-171
196.371	437
196.440	640
196.509	307
196.578	-227
196.646	724
196.715	-128
196.784	920
196.853	820
196.921	232
196.990	224
197.059	743
197.127	651
197.196	856
197.265	-109
197.333	406
197.402	214
197.471	653
197.539	918
197.608	1509
197.677	2768
197.745	1139
197.814	2668
197.883	1728
197.951	1749
198.020	1005
198.088	1281
198.157	1297
198.226	3142
198.294	1366
198.363	859
198.431	835
198.500	1487
198.569	2774
198.637	1720
198.706	939
198.774	3867
198.843	3204
198.911	957
198.980	637
199.048	153
199.117	848
199.185	862
199.254	888
199.322	540
199.391	691
199.459	-287
199.528	590
199.596	48
199.665	413
199.733	552
199.802	498
199.870	-193
199.939	1036
200.007	282
200.076	1130
200.144	416
200.213	55
200.281	608
200.349	823
200.418	1887
200.486	769
200.555	322
200.623	720
200.691	314
200.760	778
200.828	647
200.897	1046
200.965	652
201.033	45
201.102	410
201.170	1443
201.238	653
201.307	467
201.375	633
201.443	1351
201.512	651
201.580	686
201.648	-111
201.716	744
201.785	735
201.853	1018
201.921	79
201.990	294
202.058	622
202.126	616
202.194	620
202.263	223
202.331	622
202.399	425
202.467	461
202.536	4449
202.604	1351
202.672	1214
202.740	659
202.808	916
202.877	759
202.945	429
203.013	43
203.081	1150
203.149	687
203.218	514
203.286	650
203.354	872
203.422	530
203.490	590
203.558	-9
203.626	1118
203.695	773
203.763	688
203.831	653
203.899	924
203.967	391
204.035	684
204.103	491
204.171	1330
204.239	885
204.307	1478
204.375	492
204.443	619
204.512	128
204.580	472
204.648	125
204.716	54
204.784	1271
204.852	-118
204.920	333
204.988	659
205.056	970
205.124	477
205.192	232
205.260	980
205.328	386
205.396	768
205.464	1282
205.532	866
205.600	714
205.667	540
205.735	3084
205.803	5596
205.871	1159
205.939	1293
206.007	297
206.075	1197
206.143	679
206.211	977
206.279	578
206.347	982
206.414	120
206.482	633
206.550	589
206.618	1409
206.686	586
206.754	2059
206.822	834
206.889	223
206.957	1445
207.025	1365
207.093	223
207.161	1179
207.229	-29
207.296	1061
207.364	1082
207.432	836
207.500	558
207.567	643
207.635	263
207.703	183
207.771	676
207.839	1146
207.906	556
207.974	1146
208.042	-116
208.109	1622
208.177	1156
208.245	2149
208.313	1584
208.380	2668
208.448	509
208.516	1032
208.583	1315
208.651	2197
208.719	1117
208.786	1135
208.854	582
208.922	730
208.989	862
209.057	960
209.125	308
209.192	690
209.260	258
209.327	1378
209.395	1686
209.463	669
209.530	709
209.598	1161
209.665	401
209.733	766
209.801	413
209.868	551
209.936	817
210.003	2235
210.071	1186
210.138	1041
210.206	1932
210.273	1887
210.341	618
210.408	730
210.476	1342
210.543	669
210.611	1865
210.678	1315
210.746	1153
210.813	1641
210.881	1555
210.948	1644
211.016	858
211.083	560
211.151	1693
211.218	2232
211.285	721
211.353	1055
211.420	1786
211.488	1087
211.555	1456
211.622	2385
211.690	262
211.757	1680
211.825	1660
211.892	1281
211.959	1176
212.027	784
212.094	1110
212.161	1734
212.229	2991
212.296	5879
212.363	17359
212.431	6636
212.498	2676
212.565	1130
212.633	734
212.700	1759
212.767	1424
212.835	1565
212.902	1153
212.969	1451
213.036	1140
213.104	1614
213.171	1878
213.238	1999
213.305	1850
213.373	2176
213.440	1239
213.507	2029
213.574	1682
213.641	849
213.709	552
213.776	2224
213.843	1254
213.910	1624
213.977	1018
214.045	1512
214.112	1085
214.179	1032
214.246	1045
214.313	1426
214.380	1321
214.447	2092
214.515	2040
214.582	2042
214.649	1066
214.716	1408
214.783	519
214.850	1923
214.917	1931
214.984	3704
215.051	2981
215.118	2303
215.185	1434
215.253	1413
215.320	882
215.387	1297
215.454	659
215.521	751
215.588	372
215.655	1141
215.722	1242
215.789	1216
215.856	1414
215.923	420
215.990	173
216.057	724
216.124	597
216.191	925
216.258	986
216.325	1376
216.391	466
216.458	1718
216.525	1923
216.592	3737
216.659	4187
216.726	2861
216.793	4058
216.860	4166
216.927	2497
216.994	1756
217.061	2652
217.127	2343
217.194	2872
217.261	5397
217.328	7396
217.395	5083
217.462	2600
217.529	2215
217.595	840
217.662	1451
217.729	3029
217.796	3500
217.863	1166
217.929	1339
217.996	1146
218.063	874
218.130	1440
218.196	841
218.263	376
218.330	586
218.397	485
218.463	1221
218.530	1219
218.597	3845
218.664	3289
218.730	1710
218.797	948
218.864	218
218.930	702
218.997	734
219.064	1464
219.131	3364
219.197	1269
219.264	457
219.331	1112
219.397	233
219.464	869
219.530	2609
219.597	2244
219.664	1118
219.730	1691
219.797	945
219.864	365
219.930	2242
219.997	4840
220.063	2843
220.130	1631
220.196	1422
220.263	2278
220.330	5338
220.396	11235
220.463	5979
220.529	2599
220.596	2719
220.662	2674
220.729	8936
220.795	7061
220.862	9135
220.928	19037
220.995	17502
221.061	14650
221.128	10648
221.194	3893
221.261	2236
221.327	1054
221.394	838
221.460	1002
221.526	2019
221.593	12518
221.659	8273
221.726	7810
221.792	6836
221.859	3210
221.925	996
221.991	1606
222.058	481
222.124	1486
222.190	2774
222.257	1075
222.323	1138
222.390	-214
222.456	982
222.522	1302
222.589	1016
222.655	294
222.721	925
222.788	581
222.854	664
222.920	493
222.986	374
223.053	85
223.119	1686
223.185	-156
223.251	271
223.318	-204
223.384	985
223.450	53
223.516	-346
223.583	-259
223.649	325
223.715	-29
223.781	479
223.848	99
223.914	676
223.980	947
224.046	447
224.112	-225
224.178	362
224.245	96
224.311	767
224.377	115
224.443	236
224.509	-296
224.575	360
224.641	705
224.708	473
224.774	509
224.840	1158
224.906	803
224.972	393
225.038	-7
225.104	1203
225.170	362
225.236	989
225.302	821
225.368	702
225.434	-127
225.500	633
225.566	692
225.632	622
225.699	1350
225.765	2001
225.831	990
225.897	3345
225.963	1950
226.028	1900
226.094	1682
226.160	2900
226.226	11772
226.292	27974
226.358	10803
226.424	4879
226.490	2176
226.556	2115
226.622	2210
226.688	3625
226.754	7381
226.820	35193
226.886	33371
226.951	8403
227.017	4233
227.083	1980
227.149	2508
227.215	1194
227.281	993
227.347	1436
227.412	1754
227.478	6263
227.544	5204
227.610	1985
227.676	993
227.742	1035
227.807	1206
227.873	1366
227.939	1689
228.005	449
228.070	400
228.136	838
228.202	647
228.268	518
228.333	1505
228.399	1329
228.465	631
228.531	1794
228.596	842
228.662	2294
228.728	1462
228.793	527
228.859	-415
228.925	1565
228.990	983
229.056	886
229.122	841
229.187	2534
229.253	-216
229.319	1164
229.384	575
229.450	672
229.516	-727
229.581	1186
229.647	597
229.712	5123
229.778	4938
229.844	2355
229.909	2184
229.975	2348
230.040	1432
230.106	1878
230.171	1639
230.237	4526
230.302	2790
230.368	990
230.433	427
230.499	1634
230.564	489
230.630	1296
230.695	413
230.761	710
230.826	2276
230.892	597
230.957	556
231.023	844
231.088	880
231.154	517
231.219	2565
231.285	1983
231.350	422
231.415	139
231.481	568
231.546	1155
231.612	246
231.677	259
231.742	1659
231.808	434
231.873	-388
231.938	2993
232.004	2104
232.069	1470
232.135	784
232.200	952
232.265	831
232.330	1079
232.396	523
232.461	571
232.526	450
232.592	850
232.657	1832
232.722	1694
232.788	1086
232.853	565
232.918	214
232.983	628
233.048	1516
233.114	1588
233.179	3629
233.244	3995
233.309	660
233.375	1025
233.440	901
233.505	631
233.570	474
233.635	1131
233.700	1850
233.766	3018
233.831	946
233.896	1341
233.961	1360
234.026	1516
234.091	1256
234.156	1135
234.222	1707
234.287	9796
234.352	6605
234.417	3957
234.482	1890
234.547	1831
234.612	1324
234.677	1636
234.742	8015
234.807	5063
234.872	2477
234.937	1922
235.002	1948
235.067	959
235.132	1838
235.197	1607
235.262	1046
235.327	1264
235.392	1913
235.457	2129
235.522	1350
235.587	1328
235.652	1264
235.717	1799
235.782	1863
235.847	4045
235.912	5015
235.977	4977
236.042	2344
236.107	1955
236.172	2061
236.236	2186
236.301	2280
236.366	3034
236.431	5634
236.496	3399
236.561	8203
236.626	44944
236.691	32186
236.755	9355
236.820	5983
236.885	4912
236.950	3837
237.015	4544
237.079	4636
237.144	12144
237.209	42656
237.274	81930
237.339	26131
237.403	10391
237.468	6028
237.533	4527
237.598	2715
237.662	2951
237.727	4528
237.792	8990
237.856	4669
237.921	2722
237.986	3700
238.050	4387
238.115	13842
238.180	13429
238.245	5272
238.309	3493
238.374	1499
238.438	2936
238.503	937
238.568	2644
238.632	2295
238.697	1225
238.762	4566
238.826	6870
238.891	4121
238.955	2453
239.020	1545
239.085	2772
239.149	260
239.214	1540
239.278	1261
239.343	1719
239.407	1421
239.472	13215
239.536	10391
239.601	3094
239.665	1276
239.730	3610
239.794	10193
239.859	11077
239.923	3713
239.988	2056
240.052	1158
240.117	1551
240.181	1131
240.246	1480
240.310	1603
240.374	6170
240.439	12598
240.503	3986
240.568	4722
240.632	6186
240.696	1930
240.761	1654
240.825	896
240.890	1301
240.954	6099
241.018	11522
241.083	4696
241.147	1326
241.211	2550
241.276	6036
241.340	2890
241.404	1762
241.469	1396
241.533	2259
241.597	898
241.661	1785
241.726	1713
241.790	1292
241.854	1275
241.919	1872
241.983	1127
242.047	659
242.111	1171
242.175	987
242.240	2183
242.304	1402
242.368	1422
242.432	1093
242.496	952
242.561	902
242.625	1069
242.689	1149
242.753	795
242.817	2283
242.881	1139
242.946	1244
243.010	1503
243.074	1406
243.138	2019
243.202	1561
243.266	1781
243.330	2604
243.394	14792
243.458	49927
243.522	15224
243.586	5783
243.651	3345
243.715	2564
243.779	4206
243.843	6301
243.907	5463
243.971	3541
244.035	2885
244.099	1604
244.163	2390
244.227	4679
244.291	5007
244.355	2494
244.419	1719
244.483	2318
244.546	-172
244.610	1261
244.674	2462
244.738	2736
244.802	1428
244.866	1497
244.930	115
244.994	710
245.058	1653
245.122	3393
245.186	3154
245.249	3845
245.313	1782
245.377	2278
245.441	1185
245.505	2046
245.569	1078
245.632	2161
245.696	7430
245.760	3901
245.824	1109
245.888	2058
245.951	2511
246.015	2087
246.079	3175
246.143	9921
246.207	20638
246.270	7190
246.334	3156
246.398	3977
246.461	5817
246.525	4253
246.589	2965
246.653	2555
246.716	3810
246.780	4041
246.844	5243
246.907	2201
246.971	2467
247.035	2079
247.098	2951
247.162	8444
247.226	27741
247.289	11739
247.353	3887
247.416	6847
247.480	3736
247.544	3315
247.607	3066
247.671	3028
247.734	2278
247.798	3058
247.861	7836
247.925	24050
247.989	7815
248.052	3653
248.116	3932
248.179	6259
248.243	36255
248.306	35896
248.370	24693
248.433	7967
248.497	6537
248.560	6304
248.624	9227
248.687	12999
248.751	40410
248.814	19565
248.877	19082
248.941	29797
249.004	48594
249.068	41139
249.131	12702
249.194	6779
249.258	7803
249.321	6247
249.385	4720
249.448	5026
249.511	5269
249.575	8195
249.638	6771
249.701	4265
249.765	5263
249.828	5713
249.891	4476
249.955	4616
250.018	16421
250.081	21523
250.145	8231
250.208	6445
250.271	6534
250.334	6116
250.398	4964
250.461	6240
250.524	9594
250.587	53164
250.651	93621
250.714	25976
250.777	13456
250.840	7664
250.903	7979
250.967	11906
251.030	27538
251.093	12461
251.156	9989
251.219	9103
251.282	13338
251.345	78420
251.409	71789
251.472	36134
251.535	150506
251.598	98745
251.661	30020
251.724	31940
251.787	34126
251.850	94193
251.913	47727
251.976	15073
252.039	10290
252.103	9759
252.166	17561
252.229	47150
252.292	46210
252.355	122825
252.418	44615
252.481	17765
252.544	10916
252.607	12570
252.670	35970
252.733	46652
252.796	120745
252.858	63455
252.921	28063
252.984	15919
253.047	10329
253.110	8619
253.173	14120
253.236	10290
253.299	8300
253.362	7282
253.425	7990
253.488	22627
253.550	12949
253.613	11149
253.676	11058
253.739	5811
253.802	6884
253.865	5786
253.928	5038
253.990	14306
254.053	23990
254.116	13507
254.179	11360
254.242	5934
254.304	9508
254.367	11855
254.430	9035
254.493	13749
254.555	26036
254.618	11588
254.681	4694
254.743	4921
254.806	4463
254.869	16140
254.932	18022
254.994	5662
255.057	4422
255.120	3699
255.182	1720
255.245	3569
255.308	2676
255.370	2443
255.433	1435
255.496	2054
255.558	2269
255.621	2837
255.683	1348
255.746	2952
255.809	1934
255.871	2370
255.934	1900
255.996	1848
256.059	1438
256.121	3038
256.184	8680
256.246	5953
256.309	5690
256.371	3868
256.434	2613
256.496	2240
256.559	2625
256.621	4892
256.684	19630
256.746	69204
256.809	20487
256.871	8091
256.934	5689
256.996	4901
257.059	3777
257.121	2900
257.183	2886
257.246	2551
257.308	2837
257.371	10885
257.433	87417
257.495	78107
257.558	27443
257.620	13414
257.683	6323
257.745	5593
257.807	3445
257.870	4309
257.932	2538
257.994	2216
258.056	2417
258.119	4164
258.181	6446
258.243	3834
258.306	2362
258.368	11057
258.430	10093
258.492	12746
258.555	17404
258.617	4131
258.679	4232
258.741	5824
258.803	2401
258.866	2641
258.928	2903
258.990	1954
259.052	2667
259.114	4461
259.177	3418
259.239	3483
259.301	10282
259.363	6476
259.425	2479
259.487	2403
259.549	2673
259.611	1496
259.674	2485
259.736	12220
259.798	23290
259.860	39825
259.922	30292
259.984	7075
260.046	3979
260.108	3083
260.170	2909
260.232	1460
260.294	2042
260.356	878
260.418	3377
260.480	7369
260.542	7943
260.604	17367
260.666	25264
260.728	5575
260.790	3823
260.852	2590
260.914	2768
260.976	2278
261.038	3491
261.100	20202
261.161	19679
261.223	5315
261.285	9167
261.347	14200
261.409	3917
261.471	3136
261.533	1275
261.595	2306
261.656	5266
261.718	13688
261.780	5338
261.842	3738
261.904	976
261.966	3161
262.027	2710
262.089	5085
262.151	3737
262.213	3049
262.274	6954
262.336	5898
262.398	2622
262.460	5089
262.521	14098
262.583	4851
262.645	2176
262.706	4342
262.768	12439
262.830	6176
262.892	3386
262.953	3656
263.015	26293
263.077	75364
263.138	20663
263.200	8855
263.261	4373
263.323	3346
263.385	1705
263.446	2226
263.508	5855
263.569	4282
263.631	1656
263.693	1514
263.754	1524
263.816	1292
263.877	371
263.939	1204
264.000	1398
264.062	2637
264.123	1553
264.185	399
264.246	1255
264.308	3090
264.369	5798
264.431	1855
264.492	722
264.554	2463
264.615	1156
264.677	1548
264.738	1189
264.800	368
264.861	598
264.922	936
264.984	573
265.045	1202
265.107	2967
265.168	33221
265.229	27998
265.291	4543
265.352	3335
265.413	1825
265.475	984
265.536	1566
265.597	1077
265.659	840
265.720	362
265.781	991
265.843	1041
265.904	6428
265.965	60306
266.026	41571
266.088	8481
266.149	4815
266.210	3123
266.271	1052
266.333	1332
266.394	1861
266.455	742
266.516	1117
266.577	2763
266.639	5511
266.700	1415
266.761	852
266.822	1008
266.883	1786
266.944	885
267.005	1869
267.067	1549
267.128	775
267.189	946
267.250	2111
267.311	172
267.372	405
267.433	1552
267.494	1534
267.555	323
267.616	434
267.677	1860
267.738	623
267.799	2203
267.860	9546
267.921	2445
267.982	1692
268.043	1253
268.104	966
268.165	166
268.226	860
268.287	0
268.348	852
268.409	1422
268.470	43
268.531	838
268.592	-349
268.653	122
268.714	306
268.775	1570
268.836	4611
268.896	5843
268.957	2371
269.018	377
269.079	875
269.140	312
269.201	411
269.262	515
269.322	622
269.383	488
269.444	1896
269.505	1909
269.565	3204
269.626	2083
269.687	1329
269.748	1063
269.809	2302
269.869	3371
269.930	1254
269.991	530
270.051	859
270.112	1056
270.173	926
270.234	730
270.294	1262
270.355	1153
270.416	325
270.476	742
270.537	3717
270.598	8481
270.658	3467
270.719	1730
270.779	2654
270.840	1606
270.901	1599
270.961	1468
271.022	1477
271.082	3970
271.143	3396
271.203	1515
271.264	1426
271.325	1337
271.385	6783
271.446	2739
271.506	1667
271.567	2316
271.627	1511
271.688	1578
271.748	5748
271.809	35963
271.869	60459
271.930	13961
271.990	25120
272.050	52950
272.111	12260
272.171	5732
272.232	5910
272.292	33813
272.352	17974
272.413	8074
272.473	6553
272.534	7051
272.594	4999
272.654	4928
272.715	9691
272.775	4574
272.835	3527
272.896	1270
272.956	2403
273.016	3516
273.077	3617
273.137	2927
273.197	3422
273.257	14870
273.318	38468
273.378	11966
273.438	10804
273.498	26869
273.559	9763
273.619	17578
273.679	48259
273.739	16257
273.799	7917
273.860	15550
273.920	29964
273.980	7000
274.040	4625
274.100	6934
274.160	47612
274.221	44136
274.281	24540
274.341	30894
274.401	19368
274.461	6969
274.521	4563
274.581	22618
274.641	29532
274.701	11135
274.761	5087
274.821	10426
274.882	43600
274.942	51705
275.002	32225
275.062	9447
275.122	5284
275.182	4110
275.242	4732
275.302	7354
275.362	7340
275.421	4755
275.481	18019
275.541	43618
275.601	27647
275.661	12113
275.721	8307
275.781	4238
275.841	2202
275.901	3189
275.961	3228
276.021	2307
276.081	6060
276.140	17155
276.200	7752
276.260	5065
276.320	2948
276.380	3480
276.440	3174
276.499	2088
276.559	1818
276.619	3295
276.679	10563
276.738	8594
276.798	3754
276.858	3833
276.918	4125
276.978	2617
277.037	2734
