'Start Wavelength	183.907
'End Wavelength	1046.922
'Gate Delay	5.000
'Gate Width (ms)	1.050
'Laser Output Level	0.000
'X Position	0.000
'Y Position	0.000
'Z Position	0.000
'Grid Point Number	1.000
'Shot Number	100.000
183.907	987.000
183.977	-633.000
184.047	544
184.116	-471
184.186	761
184.256	-284
184.325	847
184.395	-1395
184.465	1351
184.534	-486
184.604	-334
184.674	217
184.743	210
184.813	38
184.883	507
184.952	51
185.022	932
185.092	-182
185.161	463
185.231	512
185.301	372
185.370	-142
185.440	-71
185.509	-506
185.579	-89
185.649	39
185.718	863
185.788	-111
185.857	-95
185.927	-445
185.996	322
186.066	324
186.136	200
186.205	-165
186.275	-427
186.344	-483
186.414	311
186.483	-996
186.553	871
186.622	262
186.692	709
186.761	57
186.831	303
186.900	118
186.970	266
187.039	305
187.109	148
187.178	-451
187.248	826
187.317	263
187.387	93
187.456	417
187.526	-256
187.595	-454
187.664	-306
187.734	50
187.803	82
187.873	96
187.942	1415
188.012	54
188.081	-133
188.150	462
188.220	220
188.289	443
188.358	494
188.428	336
188.497	-492
188.567	249
188.636	633
188.705	-1288
188.775	222
188.844	-810
188.913	519
188.983	-72
189.052	328
189.121	-386
189.191	1208
189.260	-57
189.329	521
189.399	-1079
189.468	228
189.537	-695
189.606	-10
189.676	388
189.745	977
189.814	191
189.883	765
189.953	-199
190.022	252
190.091	150
190.161	158
190.230	379
190.299	80
190.368	80
190.437	-36
190.507	135
190.576	499
190.645	-116
190.714	81
190.783	-762
190.853	650
190.922	96
190.991	2
191.060	283
191.129	-268
191.198	19
191.268	-425
191.337	74
191.406	478
191.475	1
191.544	-72
191.613	266
191.682	-130
191.752	-172
191.821	-515
191.890	-293
191.959	-228
192.028	-156
192.097	282
192.166	-71
192.235	133
192.304	-240
192.373	-437
192.442	-544
192.511	67
192.580	-94
192.650	449
192.719	-568
192.788	603
192.857	-379
192.926	112
192.995	257
193.064	-129
193.133	-627
193.202	-816
193.271	337
193.340	-36
193.409	48
193.478	661
193.547	46
193.615	502
193.684	-554
193.753	4
193.822	13
193.891	-7
193.960	524
194.029	58
194.098	-314
194.167	-394
194.236	130
194.305	-196
194.374	-97
194.443	-507
194.512	207
194.580	777
194.649	998
194.718	-388
194.787	-765
194.856	272
194.925	331
194.994	-71
195.062	641
195.131	189
195.200	-174
195.269	315
195.338	228
195.407	318
195.475	-285
195.544	718
195.613	-110
195.682	-413
195.751	63
195.819	63
195.888	28
195.957	1072
196.026	-470
196.094	859
196.163	-592
196.232	784
196.301	-193
196.369	-167
196.438	-388
196.507	561
196.576	-314
196.644	303
196.713	-702
196.782	375
196.850	990
196.919	385
196.988	493
197.056	-99
197.125	-469
197.194	267
197.262	-310
197.331	-282
197.400	-64
197.468	1186
197.537	-560
197.606	-94
197.674	-215
197.743	109
197.812	-297
197.880	-466
197.949	-729
198.017	87
198.086	-520
198.155	-20
198.223	-244
198.292	518
198.360	66
198.429	-58
198.497	-407
198.566	440
198.635	-443
198.703	545
198.772	-150
198.840	198
198.909	-448
198.977	-233
199.046	-581
199.114	1
199.183	-218
199.251	-202
199.320	30
199.388	-262
199.457	-613
199.525	-269
199.594	-679
199.662	-206
199.731	-226
199.799	-307
199.867	-125
199.936	-661
200.004	482
200.073	553
200.141	-128
200.210	-89
200.278	-587
200.346	846
200.415	512
200.483	-448
200.552	94
200.620	-46
200.688	102
200.757	-376
200.825	-1378
200.893	317
200.962	-64
201.030	-168
201.098	480
201.167	-78
201.235	-22
201.303	-303
201.372	-90
201.440	282
201.508	-74
201.577	395
201.645	160
201.713	180
201.781	-481
201.850	809
201.918	650
201.986	-68
202.055	53
202.123	-335
202.191	-291
202.259	629
202.327	181
202.396	944
202.464	221
202.532	-15
202.600	1038
202.669	305
202.737	-207
202.805	-480
202.873	-129
202.941	611
203.009	-24
203.078	-274
203.146	-27
203.214	-535
203.282	-731
203.350	602
203.418	45
203.487	-132
203.555	-333
203.623	298
203.691	204
203.759	429
203.827	-27
203.895	-366
203.963	43
204.031	-77
204.099	47
204.168	-173
204.236	827
204.304	615
204.372	-405
204.440	-195
204.508	-591
204.576	-106
204.644	-21
204.712	262
204.780	148
204.848	256
204.916	-799
204.984	294
205.052	-122
205.120	-214
205.188	417
205.256	117
205.324	78
205.392	-777
205.460	-381
205.528	-775
205.596	-174
205.664	701
205.732	-961
205.799	-203
205.867	13
205.935	-791
206.003	187
206.071	152
206.139	-915
206.207	-516
206.275	-193
206.343	118
206.411	-800
206.478	-409
206.546	237
206.614	138
206.682	-540
206.750	-102
206.818	337
206.885	807
206.953	-893
207.021	38
207.089	66
207.157	-347
207.225	-1061
207.292	92
207.360	-161
207.428	453
207.496	49
207.563	-16
207.631	97
207.699	-564
207.767	-126
207.834	-160
207.902	-985
207.970	-193
208.038	-306
208.105	331
208.173	-856
208.241	-766
208.309	-100
208.376	490
208.444	-50
208.512	-264
208.579	-786
208.647	695
208.715	-56
208.782	323
208.850	-623
208.918	-363
208.985	-574
209.053	480
209.120	169
209.188	-1170
209.256	-485
209.323	-1150
209.391	-732
209.459	488
209.526	-627
209.594	-445
209.661	-138
209.729	-103
209.796	224
209.864	-707
209.932	-1861
209.999	603
210.067	119
210.134	-120
210.202	-495
210.269	592
210.337	499
210.404	-720
210.472	-150
210.539	-638
210.607	-697
210.674	-583
210.742	-188
210.809	242
210.877	-171
210.944	-54
211.012	-1386
211.079	524
211.146	-813
211.214	-497
211.281	144
211.349	464
211.416	21
211.484	-420
211.551	-385
211.618	318
211.686	-161
211.753	-254
211.821	106
211.888	-342
211.955	-551
212.023	-236
212.090	290
212.157	-240
212.225	-639
212.292	-348
212.359	169
212.427	1499
212.494	-157
212.561	-240
212.629	-400
212.696	204
212.763	-251
212.831	-312
212.898	137
212.965	223
213.032	-1382
213.100	-150
213.167	-922
213.234	198
213.301	-749
213.369	-742
213.436	-568
213.503	-907
213.570	-705
213.638	-100
213.705	-54
213.772	-527
213.839	-494
213.906	549
213.973	0
214.041	176
214.108	78
214.175	84
214.242	-210
214.309	311
214.376	-724
214.444	-829
214.511	-637
214.578	-14
214.645	82
214.712	337
214.779	-272
214.846	-603
214.913	-205
214.980	781
215.048	888
215.115	793
215.182	-236
215.249	679
215.316	-355
215.383	722
215.450	-152
215.517	-309
215.584	-374
215.651	135
215.718	-429
215.785	-420
215.852	-547
215.919	-354
215.986	139
216.053	-305
216.120	-586
216.187	215
216.254	27
216.321	-410
216.388	-249
216.455	672
216.522	890
216.589	85
216.656	52
216.722	164
216.789	-729
216.856	-285
216.923	-1436
216.990	345
217.057	-309
217.124	-102
217.191	-283
217.258	-681
217.324	-783
217.391	294
217.458	-746
217.525	-277
217.592	-885
217.659	-519
217.725	449
217.792	-637
217.859	-385
217.926	-166
217.993	-503
218.059	25
218.126	-137
218.193	-321
218.260	-667
218.327	4
218.393	-259
218.460	-383
218.527	-1251
218.594	-375
218.660	-713
218.727	9
218.794	-764
218.860	842
218.927	-702
218.994	-645
219.061	-772
219.127	-638
219.194	81
219.261	317
219.327	-565
219.394	400
219.461	-823
219.527	-73
219.594	-208
219.661	-319
219.727	-1679
219.794	210
219.860	-485
219.927	673
219.994	456
220.060	1361
220.127	1297
220.193	913
220.260	282
220.326	438
220.393	178
220.460	466
220.526	-327
220.593	-401
220.659	453
220.726	-336
220.792	480
220.859	-478
220.925	171
220.992	851
221.058	701
221.125	551
221.191	177
221.258	-291
221.324	769
221.391	-891
221.457	-309
221.524	423
221.590	27
221.657	1472
221.723	114
221.789	28
221.856	456
221.922	-683
221.989	240
222.055	142
222.121	-1292
222.188	1682
222.254	-474
222.321	-232
222.387	-830
222.453	334
222.520	-316
222.586	-145
222.652	-29
222.719	-127
222.785	-299
222.851	-157
222.918	-211
222.984	337
223.050	-189
223.116	-978
223.183	498
223.249	-804
223.315	-925
223.382	-264
223.448	-447
223.514	-175
223.580	234
223.647	-381
223.713	-679
223.779	-739
223.845	-479
223.911	675
223.978	-1297
224.044	-142
224.110	-854
224.176	718
224.242	-1305
224.309	-495
224.375	-623
224.441	69
224.507	-993
224.573	-1436
224.639	346
224.705	-378
224.772	-6
224.838	-1169
224.904	-684
224.970	355
225.036	-827
225.102	-1427
225.168	-35
225.234	196
225.300	-805
225.366	-863
225.432	67
225.499	-364
225.565	36
225.631	-730
225.697	328
225.763	-832
225.829	192
225.895	-9
225.961	-127
226.027	-296
226.093	-480
226.159	654
226.225	351
226.291	1246
226.357	1233
226.423	784
226.489	31
226.554	256
226.620	-19
226.686	-390
226.752	-909
226.818	733
226.884	1940
226.950	2646
227.016	-288
227.082	-20
227.148	-725
227.214	381
227.279	-265
227.345	28
227.411	-510
227.477	1479
227.543	2170
227.609	1762
227.674	1718
227.740	513
227.806	-506
227.872	94
227.938	188
228.003	16
228.069	-722
228.135	-268
228.201	190
228.267	197
228.332	-1169
228.398	-1154
228.464	224
228.530	-775
228.595	-350
228.661	-672
228.727	-212
228.792	322
228.858	-1604
228.924	-1275
228.990	339
229.055	-469
229.121	-598
229.187	-962
229.252	-151
229.318	-301
229.384	-402
229.449	-769
229.515	-1659
229.581	-1415
229.646	1641
229.712	184
229.777	-934
229.843	-715
229.909	-234
229.974	581
230.040	-27
230.105	19
230.171	-942
230.236	397
230.302	215
230.368	-220
230.433	-462
230.499	32
230.564	412
230.630	-542
230.695	-103
230.761	704
230.826	-2013
230.892	1101
230.957	-1393
231.023	-374
231.088	-755
231.154	-122
231.219	-374
231.284	-971
231.350	361
231.415	-750
231.481	-103
231.546	348
231.612	-480
231.677	205
231.742	-1439
231.808	715
231.873	-1170
231.939	-1664
232.004	321
232.069	941
232.135	-294
232.200	-385
232.265	60
232.331	-875
232.396	-514
232.461	-838
232.527	-537
232.592	-180
232.657	151
232.723	-271
232.788	-596
232.853	-45
232.918	185
232.984	-758
233.049	-687
233.114	-1281
233.179	-510
233.245	792
233.310	-722
233.375	-1506
233.440	-7
233.506	-282
233.571	-481
233.636	619
233.701	-500
233.766	-496
233.832	-56
233.897	-367
233.962	-1103
234.027	-97
234.092	-234
234.157	-887
234.222	-879
234.288	141
234.353	293
234.418	525
234.483	-215
234.548	393
234.613	-517
234.678	-270
234.743	-728
234.808	863
234.873	-1084
234.938	1061
235.004	-240
235.069	123
235.134	-1063
235.199	432
235.264	-188
235.329	-1168
235.394	244
235.459	200
235.524	-792
235.589	545
235.654	-335
235.719	-1136
235.784	-409
235.849	-123
235.913	157
235.978	-361
236.043	-351
236.108	-62
236.173	-626
236.238	563
236.303	-769
236.368	-590
236.433	116
236.498	-370
236.563	-487
236.627	931
236.692	3064
236.757	2714
236.822	515
236.887	117
236.952	-231
237.017	-794
237.081	864
237.146	-83
237.211	729
237.276	2499
237.341	5222
237.405	1027
237.470	313
237.535	714
237.600	-252
237.664	-619
237.729	-968
237.794	-503
237.859	1068
237.923	124
237.988	144
238.053	370
238.118	-983
238.182	-254
238.247	633
238.312	-1060
238.376	-94
238.441	-1970
238.506	166
238.570	-787
238.635	370
238.700	4
238.764	-1392
238.829	89
238.893	-671
238.958	-81
239.023	-930
239.087	-183
239.152	371
239.216	-794
239.281	-260
239.346	-557
239.410	18
239.475	223
239.539	-168
239.604	-1525
239.668	606
239.733	572
239.797	2167
239.862	3746
239.926	3861
239.991	2086
240.055	1291
240.120	725
240.184	94
240.249	-484
240.313	-762
240.378	-706
240.442	-110
240.507	-641
240.571	-199
240.635	-1219
240.700	118
240.764	21
240.829	-949
240.893	-1068
240.957	-260
241.022	80
241.086	-514
241.151	-859
241.215	-1181
241.279	933
241.344	-834
241.408	96
241.472	-1440
241.537	1055
241.601	-217
241.665	-384
241.730	-914
241.794	473
241.858	-1505
241.922	-132
241.987	-382
242.051	-790
242.115	-1818
242.179	-161
242.244	-453
242.308	759
242.372	38
242.436	-684
242.501	-1007
242.565	-784
242.629	-862
242.693	454
242.757	-1254
242.822	206
242.886	-742
242.950	664
243.014	-1130
243.078	525
243.142	-710
243.206	-313
243.271	256
243.335	-307
243.399	302
243.463	1904
243.527	4983
243.591	352
243.655	-822
243.719	-760
243.783	558
243.847	646
243.911	483
243.975	-553
244.040	-1715
244.104	834
244.168	-93
244.232	-33
244.296	-879
244.360	-405
244.424	-709
244.488	744
244.552	-19
244.615	-1078
244.679	-228
244.743	-38
244.807	-1274
244.871	115
244.935	523
244.999	-1135
245.063	-959
245.127	364
245.191	-575
245.255	-15
245.319	-432
245.383	-2038
245.446	682
245.510	-704
245.574	-703
245.638	169
245.702	-1268
245.766	-787
245.829	651
245.893	-1134
245.957	-1057
246.021	498
246.085	123
246.149	-244
246.212	635
246.276	-774
246.340	-562
246.404	-318
246.467	443
246.531	-1996
246.595	161
246.659	-495
246.722	-899
246.786	476
246.850	-42
246.913	-103
246.977	-1092
247.041	-234
247.104	-801
247.168	-439
247.232	367
247.295	465
247.359	-241
247.423	-860
247.486	-1014
247.550	332
247.614	-1212
247.677	338
247.741	-623
247.804	6
247.868	890
247.932	-485
247.995	1014
248.059	-361
248.122	-1184
248.186	490
248.249	-1278
248.313	1277
248.376	1277
248.440	-311
248.503	-1865
248.567	1234
248.630	-1878
248.694	-511
248.757	-485
248.821	2220
248.884	1250
248.948	-150
249.011	729
249.075	969
249.138	754
249.202	469
249.265	-101
249.328	1111
249.392	-2115
249.455	336
249.519	-70
249.582	211
249.645	-168
249.709	-670
249.772	-750
249.835	234
249.899	-1019
249.962	652
250.025	-796
250.089	479
250.152	606
250.215	-293
250.279	-22
250.342	188
250.405	26
250.468	-692
250.532	355
250.595	955
250.658	4083
250.721	9026
250.785	1983
250.848	1552
250.911	-574
250.974	1069
251.038	-441
251.101	731
251.164	-604
251.227	813
251.290	258
251.354	2045
251.417	7707
251.480	6665
251.543	4425
251.606	15990
251.669	11262
251.732	2979
251.795	1978
251.859	3137
251.922	7906
251.985	4596
252.048	1440
252.111	360
252.174	-801
252.237	1680
252.300	1341
252.363	2979
252.426	11602
252.489	2824
252.552	462
252.615	-205
252.678	1012
252.741	1862
252.804	2407
252.867	11350
252.930	3899
252.993	1486
253.056	874
253.119	-563
253.182	-221
253.245	250
253.308	720
253.371	135
253.434	-852
253.497	711
253.559	698
253.622	-311
253.685	-822
253.748	-303
253.811	-177
253.874	580
253.937	-938
254.000	160
254.062	-337
254.125	-455
254.188	741
254.251	-5
254.314	-392
254.376	-394
254.439	247
254.502	87
254.565	-386
254.628	1261
254.690	-556
254.753	-593
254.816	-1245
254.878	-622
254.941	-272
255.004	10
255.067	-926
255.129	-640
255.192	-1085
255.255	-1287
255.317	-444
255.380	-184
255.443	-342
255.505	-564
255.568	-1274
255.631	-409
255.693	-818
255.756	-424
255.819	513
255.881	-104
255.944	-93
256.006	293
256.069	-1308
256.132	-288
256.194	-1137
256.257	205
256.319	-88
256.382	-358
256.444	1495
256.507	377
256.569	-572
256.632	-392
256.694	-987
256.757	1810
256.819	5292
256.882	43
256.944	-479
257.007	948
257.069	-287
257.132	-111
257.194	265
257.257	-715
257.319	-1312
257.381	-1171
257.444	251
257.506	6476
257.569	6703
257.631	1018
257.693	681
257.756	-968
257.818	-955
257.880	-592
257.943	79
258.005	-464
258.067	-375
258.130	5
258.192	-553
258.254	-409
258.317	-652
258.379	545
258.441	-745
258.503	231
258.566	-396
258.628	567
258.690	-800
258.753	-213
258.815	457
258.877	-717
258.939	-961
259.001	188
259.064	-270
259.126	-546
259.188	-550
259.250	340
259.312	-346
259.375	-576
259.437	-1152
259.499	107
259.561	-640
259.623	159
259.685	-1176
259.747	-185
259.809	-193
259.872	586
259.934	672
259.996	715
260.058	36
260.120	32
260.182	-361
260.244	-272
260.306	361
260.368	52
260.430	-1688
260.492	-478
260.554	227
260.616	-817
260.678	-311
260.740	1243
260.802	-973
260.864	436
260.926	-1781
260.988	918
261.050	-764
261.112	-202
261.174	1343
261.236	-411
261.298	-954
261.359	-177
261.421	183
261.483	-735
261.545	813
261.607	-903
261.669	-144
261.731	-12
261.793	-75
261.854	-1964
261.916	366
261.978	-494
262.040	150
262.102	429
262.164	-1663
262.225	-170
262.287	-243
262.349	-430
262.411	251
262.472	1108
262.534	-1456
262.596	-642
262.658	147
262.719	13
262.781	179
262.843	-1000
262.904	-189
262.966	73
263.028	-54
263.090	2330
263.151	4589
263.213	679
263.275	-205
263.336	296
263.398	573
263.459	-808
263.521	-768
263.583	73
263.644	761
263.706	-306
263.767	-962
263.829	144
263.891	373
263.952	362
264.014	-718
264.075	-34
264.137	-206
264.198	-106
264.260	-703
264.321	-503
264.383	-1091
264.444	404
264.506	-1191
264.567	-344
264.629	536
264.690	-1242
264.752	-401
264.813	-244
264.875	-1465
264.936	685
264.998	-378
265.059	47
265.120	378
265.182	-8
265.243	1616
265.305	2101
265.366	209
265.427	-152
265.489	783
265.550	-967
265.611	-540
265.673	90
265.734	-556
265.795	76
265.857	-499
265.918	-1150
265.979	327
266.040	4238
266.102	3096
266.163	35
266.224	-166
266.286	-347
266.347	-1447
266.408	-17
266.469	-988
266.530	-29
266.592	-730
266.653	-624
266.714	-538
266.775	155
266.836	317
266.898	-913
266.959	-747
267.020	-912
267.081	800
267.142	-473
267.203	-74
267.264	-907
267.326	252
267.387	-622
267.448	-711
267.509	-153
267.570	-729
267.631	178
267.692	-1197
267.753	566
267.814	-1296
267.875	461
267.936	288
267.997	-359
268.058	-638
268.119	-70
268.180	-1242
268.241	-998
268.302	-787
268.363	-984
268.424	-494
268.485	-297
268.546	-755
268.607	-662
268.668	-452
268.729	-883
268.790	-417
268.851	-686
268.912	-332
268.972	-118
269.033	-75
269.094	-940
269.155	-171
269.216	-261
269.277	-483
269.338	-248
269.398	-88
269.459	-519
269.520	-800
269.581	-577
269.642	-676
269.702	-509
269.763	-537
269.824	-1317
269.885	-458
269.945	-501
270.006	-520
270.067	-661
270.128	-332
270.188	-221
270.249	-1016
270.310	-714
270.370	-34
270.431	-433
270.492	-42
270.553	-51
270.613	-34
270.674	-100
270.734	-1554
270.795	-135
270.856	-105
270.916	-98
270.977	-292
271.038	54
271.098	-563
271.159	-266
271.219	-614
271.280	405
271.340	-590
271.401	-820
271.462	-556
271.522	-60
271.583	102
271.643	-431
271.704	-1426
271.764	-590
271.825	-455
271.885	1298
271.946	2732
272.006	277
272.066	160
272.127	2260
272.187	3314
272.248	751
272.308	-276
272.369	1742
272.429	-584
272.489	-55
272.550	-535
272.610	783
272.671	-511
272.731	657
272.791	92
272.852	-315
272.912	369
272.972	-548
273.033	47
273.093	-311
273.153	9
273.214	405
273.274	-593
273.334	823
273.394	1145
273.455	519
273.515	340
273.575	268
273.635	855
273.696	1227
273.756	908
273.816	700
273.876	550
273.936	-518
273.997	127
274.057	-565
274.117	-792
274.177	575
274.237	889
274.297	941
274.358	125
274.418	991
274.478	-146
274.538	-109
274.598	-1101
274.658	139
274.718	-89
274.778	-253
274.838	-1356
274.898	-28
274.958	417
275.018	1222
275.078	177
275.138	-66
275.198	-330
275.258	-165
275.318	252
275.378	292
275.438	281
275.498	-61
275.558	-345
275.618	744
275.678	-11
275.738	231
275.798	108
275.858	-699
275.918	-985
275.978	-158
276.038	-249
276.098	-621
276.157	-196
276.217	502
276.277	-185
276.337	103
276.397	-442
276.457	760
276.517	-501
276.576	329
276.636	51
276.696	-765
276.756	349
276.815	-550
276.875	-120
276.935	-290
276.995	483
277.055	819
277.114	569
277.174	-15
277.234	-153
277.293	-467
277.353	-87
277.413	181
277.472	-835
277.532	258
277.592	753
277.651	2592
277.711	4781
277.771	998
277.830	4745
277.890	4876
277.950	2736
278.009	9517
278.069	2833
278.128	4196
278.188	4856
278.248	2578
278.307	5712
278.367	4092
278.426	950
278.486	675
278.545	-323
