'Start Wavelength	183.907
'End Wavelength	1046.922
'Gate Delay	5.000
'Gate Width (ms)	1.050
'Laser Output Level	0.000
'X Position	0.000
'Y Position	0.000
'Z Position	0.000
'Grid Point Number	1.000
'Shot Number	100.000
183.907	67.000
183.977	305.000
184.047	-333
184.116	670
184.186	104
184.256	86
184.325	583
184.395	-693
184.465	962
184.534	585
184.604	-706
184.674	-583
184.743	-662
184.813	432
184.883	299
184.952	240
185.022	-50
185.092	566
185.161	35
185.231	-483
185.301	525
185.370	535
185.440	229
185.509	313
185.579	623
185.649	733
185.718	731
185.788	709
185.857	-215
185.927	429
185.996	-124
186.066	246
186.136	-175
186.205	643
186.275	59
186.344	278
186.414	-706
186.483	-118
186.553	894
186.622	1049
186.692	229
186.761	135
186.831	-105
186.900	-398
186.970	156
187.039	336
187.109	-534
187.178	770
187.248	170
187.317	982
187.387	-238
187.456	282
187.526	-45
187.595	629
187.664	1126
187.734	995
187.803	-229
187.873	61
187.942	-277
188.012	-71
188.081	386
188.150	15
188.220	319
188.289	773
188.358	-286
188.428	439
188.497	-687
188.567	1287
188.636	-988
188.705	716
188.775	28
188.844	-692
188.913	-24
188.983	84
189.052	-515
189.121	-309
189.191	-532
189.260	552
189.329	-42
189.399	351
189.468	148
189.537	462
189.606	59
189.676	180
189.745	-530
189.814	253
189.883	-903
189.953	60
190.022	-368
190.091	-161
190.161	65
190.230	703
190.299	-75
190.368	-390
190.437	-120
190.507	-486
190.576	15
190.645	531
190.714	372
190.783	391
190.853	565
190.922	413
190.991	-18
191.060	-410
191.129	34
191.198	488
191.268	-208
191.337	100
191.406	343
191.475	438
191.544	603
191.613	-262
191.682	-385
191.752	-579
191.821	-178
191.890	517
191.959	167
192.028	-331
192.097	149
192.166	171
192.235	-962
192.304	758
192.373	-462
192.442	323
192.511	125
192.580	113
192.650	-121
192.719	862
192.788	-190
192.857	816
192.926	-363
192.995	-282
193.064	135
193.133	-285
193.202	-1
193.271	-106
193.340	482
193.409	902
193.478	-590
193.547	427
193.615	-640
193.684	82
193.753	-65
193.822	857
193.891	-367
193.960	-15
194.029	-247
194.098	415
194.167	410
194.236	61
194.305	-643
194.374	61
194.443	-327
194.512	-258
194.580	-241
194.649	726
194.718	175
194.787	147
194.856	-231
194.925	1099
194.994	-690
195.062	535
195.131	-16
195.200	-276
195.269	176
195.338	567
195.407	-261
195.475	550
195.544	856
195.613	70
195.682	239
195.751	290
195.819	-1340
195.888	705
195.957	798
196.026	201
196.094	694
196.163	-131
196.232	115
196.301	146
196.369	281
196.438	-172
196.507	-201
196.576	-268
196.644	15
196.713	472
196.782	-481
196.850	115
196.919	-73
196.988	36
197.056	279
197.125	-835
197.194	-233
197.262	414
197.331	30
197.400	-228
197.468	-100
197.537	-249
197.606	-171
197.674	383
197.743	198
197.812	-756
197.880	-570
197.949	-731
198.017	291
198.086	245
198.155	-345
198.223	421
198.292	129
198.360	-112
198.429	225
198.497	513
198.566	-192
198.635	530
198.703	303
198.772	129
198.840	55
198.909	75
198.977	302
199.046	793
199.114	-151
199.183	35
199.251	-339
199.320	-989
199.388	5
199.457	-307
199.525	27
199.594	43
199.662	-120
199.731	78
199.799	-482
199.867	365
199.936	6
200.004	552
200.073	-214
200.141	467
200.210	-108
200.278	-217
200.346	-851
200.415	-50
200.483	-213
200.552	578
200.620	-118
200.688	817
200.757	392
200.825	164
200.893	-66
200.962	330
201.030	-62
201.098	-304
201.167	-237
201.235	391
201.303	-113
201.372	1231
201.440	-496
201.508	184
201.577	-665
201.645	361
201.713	184
201.781	13
201.850	196
201.918	376
201.986	268
202.055	681
202.123	-110
202.191	384
202.259	108
202.327	136
202.396	161
202.464	494
202.532	506
202.600	912
202.669	749
202.737	-499
202.805	-721
202.873	48
202.941	89
203.009	-303
203.078	-378
203.146	699
203.214	-80
203.282	-934
203.350	413
203.418	-540
203.487	-223
203.555	-283
203.623	-618
203.691	500
203.759	-121
203.827	-78
203.895	129
203.963	-642
204.031	-146
204.099	303
204.168	-281
204.236	811
204.304	315
204.372	-65
204.440	410
204.508	272
204.576	-548
204.644	-56
204.712	9
204.780	168
204.848	606
204.916	-230
204.984	-381
205.052	172
205.120	-454
205.188	107
205.256	-290
205.324	-466
205.392	139
205.460	-99
205.528	-1194
205.596	320
205.664	551
205.732	-279
205.799	-128
205.867	704
205.935	-613
206.003	1105
206.071	-281
206.139	-398
206.207	-557
206.275	-2
206.343	-494
206.411	-221
206.478	-289
206.546	1204
206.614	54
206.682	-660
206.750	-192
206.818	260
206.885	70
206.953	-889
207.021	1134
207.089	-263
207.157	-972
207.225	-1063
207.292	-444
207.360	-87
207.428	-510
207.496	339
207.563	-1119
207.631	579
207.699	-368
207.767	-227
207.834	-710
207.902	-14
207.970	-167
208.038	338
208.105	-315
208.173	161
208.241	-708
208.309	168
208.376	-598
208.444	255
208.512	418
208.579	-1045
208.647	483
208.715	719
208.782	-243
208.850	459
208.918	-1107
208.985	69
209.053	158
209.120	27
209.188	-119
209.256	486
209.323	-287
209.391	-454
209.459	1074
209.526	-324
209.594	309
209.661	-142
209.729	-540
209.796	-29
209.864	-105
209.932	-685
209.999	1120
210.067	233
210.134	382
210.202	549
210.269	70
210.337	904
210.404	540
210.472	-290
210.539	-403
210.607	-314
210.674	-86
210.742	-90
210.809	-220
210.877	303
210.944	88
211.012	-999
211.079	1403
211.146	-26
211.214	430
211.281	1052
211.349	-103
211.416	463
211.484	229
211.551	-762
211.618	121
211.686	173
211.753	-663
211.821	-242
211.888	-245
211.955	672
212.023	-275
212.090	-800
212.157	-232
212.225	-101
212.292	-50
212.359	13
212.427	504
212.494	461
212.561	110
212.629	-2
212.696	-11
212.763	-383
212.831	-893
212.898	523
212.965	-263
213.032	-785
213.100	-1296
213.167	-468
213.234	51
213.301	51
213.369	-104
213.436	-105
213.503	-799
213.570	435
213.638	-392
213.705	138
213.772	-836
213.839	171
213.906	305
213.973	-29
214.041	-889
214.108	430
214.175	-458
214.242	37
214.309	-637
214.376	90
214.444	-1206
214.511	158
214.578	-835
214.645	139
214.712	158
214.779	-543
214.846	-382
214.913	986
214.980	-442
215.048	351
215.115	469
215.182	91
215.249	-229
215.316	-211
215.383	711
215.450	107
215.517	-356
215.584	617
215.651	-651
215.718	-832
215.785	-803
215.852	10
215.919	-657
215.986	13
216.053	-275
216.120	-601
216.187	-392
216.254	110
216.321	-379
216.388	-540
216.455	-579
216.522	201
216.589	-473
216.656	375
216.722	-8
216.789	-900
216.856	-910
216.923	-196
216.990	141
217.057	230
217.124	-980
217.191	-832
217.258	372
217.324	-67
217.391	-729
217.458	270
217.525	-63
217.592	-332
217.659	-1591
217.725	267
217.792	-1034
217.859	382
217.926	-775
217.993	-678
218.059	403
218.126	634
218.193	-303
218.260	27
218.327	-321
218.393	-1020
218.460	-337
218.527	-942
218.594	-96
218.660	-457
218.727	256
218.794	-755
218.860	115
218.927	166
218.994	-682
219.061	-433
219.127	187
219.194	438
219.261	-144
219.327	-205
219.394	-82
219.461	-954
219.527	-867
219.594	-477
219.661	-455
219.727	-972
219.794	145
219.860	-293
219.927	-114
219.994	899
220.060	962
220.127	1422
220.193	330
220.260	-101
220.326	410
220.393	-544
220.460	-949
220.526	-724
220.593	-1231
220.659	626
220.726	-85
220.792	628
220.859	310
220.925	-724
220.992	344
221.058	301
221.125	-165
221.191	143
221.258	-858
221.324	352
221.391	414
221.457	-386
221.524	231
221.590	100
221.657	117
221.723	159
221.789	-298
221.856	4
221.922	-594
221.989	480
222.055	-455
222.121	-1293
222.188	645
222.254	-437
222.321	16
222.387	-279
222.453	-188
222.520	-571
222.586	-891
222.652	503
222.719	105
222.785	-133
222.851	-553
222.918	-190
222.984	-879
223.050	-644
223.116	-1679
223.183	846
223.249	-1080
223.315	313
223.382	-405
223.448	130
223.514	-655
223.580	117
223.647	-1175
223.713	-536
223.779	-539
223.845	-82
223.911	-153
223.978	-801
224.044	258
224.110	-39
224.176	-24
224.242	-30
224.309	-1500
224.375	211
224.441	-262
224.507	-777
224.573	-345
224.639	-147
224.705	-234
224.772	-72
224.838	-443
224.904	246
224.970	-212
225.036	-34
225.102	-1443
225.168	975
225.234	124
225.300	-237
225.366	-345
225.432	-230
225.499	-196
225.565	-850
225.631	-559
225.697	-276
225.763	55
225.829	253
225.895	-236
225.961	-205
226.027	-554
226.093	-281
226.159	457
226.225	113
226.291	-612
226.357	36
226.423	-554
226.489	-239
226.554	-667
226.620	49
226.686	-470
226.752	-138
226.818	-860
226.884	158
226.950	19
227.016	-331
227.082	111
227.148	-232
227.214	-351
227.279	634
227.345	-774
227.411	174
227.477	915
227.543	1735
227.609	2216
227.674	1691
227.740	-793
227.806	517
227.872	317
227.938	23
228.003	-133
228.069	-309
228.135	-1361
228.201	-1099
228.267	-841
228.332	444
228.398	-1641
228.464	93
228.530	-359
228.595	1193
228.661	-1112
228.727	-601
228.792	430
228.858	-59
228.924	-2233
228.990	1257
229.055	-1144
229.121	486
229.187	-536
229.252	-529
229.318	-450
229.384	-306
229.449	-816
229.515	-2474
229.581	-1516
229.646	890
229.712	-802
229.777	-1075
229.843	-374
229.909	-378
229.974	163
230.040	-892
230.105	-237
230.171	-540
230.236	-355
230.302	-701
230.368	-612
230.433	-1117
230.499	-645
230.564	253
230.630	-789
230.695	-357
230.761	136
230.826	-1556
230.892	-135
230.957	-1006
231.023	-542
231.088	-296
231.154	-914
231.219	157
231.284	-826
231.350	-386
231.415	-1144
231.481	376
231.546	-641
231.612	165
231.677	-975
231.742	-1352
231.808	570
231.873	-738
231.939	-2176
232.004	291
232.069	192
232.135	-272
232.200	-507
232.265	711
232.331	-936
232.396	-612
232.461	-868
232.527	-615
232.592	-792
232.657	339
232.723	-518
232.788	100
232.853	-383
232.918	28
232.984	-525
233.049	-943
233.114	-1373
233.179	-267
233.245	487
233.310	-345
233.375	-1676
233.440	-223
233.506	-1420
233.571	-380
233.636	188
233.701	-435
233.766	62
233.832	-751
233.897	-757
233.962	-879
234.027	536
234.092	-207
234.157	-889
234.222	-516
234.288	-456
234.353	-614
234.418	-371
234.483	162
234.548	163
234.613	-662
234.678	90
234.743	-938
234.808	125
234.873	-1708
234.938	-291
235.004	-484
235.069	-685
235.134	-751
235.199	740
235.264	-245
235.329	-1608
235.394	651
235.459	-345
235.524	-1304
235.589	1016
235.654	-662
235.719	-1567
235.784	665
235.849	-743
235.913	-220
235.978	-825
236.043	173
236.108	-646
236.173	-849
236.238	337
236.303	-246
236.368	-741
236.433	-397
236.498	-741
236.563	-162
236.627	-384
236.692	598
236.757	-419
236.822	-91
236.887	-1046
236.952	814
237.017	-1347
237.081	-171
237.146	-925
237.211	1099
237.276	-601
237.341	1503
237.405	-1212
237.470	-272
237.535	-970
237.600	686
237.664	502
237.729	-574
237.794	-1518
237.859	148
237.923	-781
237.988	-431
238.053	-313
238.118	-785
238.182	119
238.247	1471
238.312	-2100
238.376	309
238.441	-1848
238.506	947
238.570	-1127
238.635	1178
238.700	-160
238.764	-998
238.829	-1221
238.893	-1543
238.958	-403
239.023	-162
239.087	80
239.152	260
239.216	-1112
239.281	-144
239.346	-241
239.410	-559
239.475	-819
239.539	584
239.604	-740
239.668	1048
239.733	183
239.797	2332
239.862	4459
239.926	3519
239.991	2172
240.055	752
240.120	-461
240.184	-75
240.249	-767
240.313	-77
240.378	-357
240.442	15
240.507	-293
240.571	-355
240.635	-1710
240.700	-118
240.764	-779
240.829	-665
240.893	-1411
240.957	523
241.022	563
241.086	517
241.151	-1929
241.215	-1606
241.279	187
241.344	-512
241.408	-18
241.472	-1217
241.537	692
241.601	-437
241.665	-1817
241.730	-438
241.794	-232
241.858	-678
241.922	-722
241.987	372
242.051	-603
242.115	-2047
242.179	-790
242.244	-773
242.308	393
242.372	-304
242.436	-738
242.501	-202
242.565	-1644
242.629	-1643
242.693	520
242.757	-927
242.822	-278
242.886	-474
242.950	836
243.014	-923
243.078	-904
243.142	-550
243.206	-1279
243.271	39
243.335	-1128
243.399	-358
243.463	-311
243.527	2157
243.591	-730
243.655	-230
243.719	-1072
243.783	552
243.847	-247
243.911	87
243.975	-1082
244.040	-2149
244.104	526
244.168	-89
244.232	-1305
244.296	-284
244.360	403
244.424	-1893
244.488	-360
244.552	214
244.615	-1562
244.679	-741
244.743	-1130
244.807	-1271
244.871	-442
244.935	-299
244.999	-1628
245.063	-721
245.127	-711
245.191	78
245.255	-891
245.319	-711
245.383	-2186
245.446	890
245.510	-1177
245.574	-645
245.638	-412
245.702	-1094
245.766	-974
245.829	826
245.893	-1380
245.957	-1067
246.021	-279
246.085	-545
246.149	-1218
246.212	889
246.276	-805
246.340	-823
246.404	-1277
246.467	521
246.531	-2748
246.595	178
246.659	-10
246.722	-1488
246.786	-114
246.850	-667
246.913	-822
246.977	-1063
247.041	-152
247.104	-641
247.168	187
247.232	-294
247.295	116
247.359	51
247.423	-1009
247.486	-71
247.550	403
247.614	-848
247.677	-1244
247.741	-1045
247.804	74
247.868	712
247.932	-1137
247.995	1517
248.059	-821
248.122	-1114
248.186	832
248.249	131
248.313	1050
248.376	1831
248.440	-649
248.503	-1529
248.567	616
248.630	-980
248.694	-1073
248.757	298
248.821	1601
248.884	1719
248.948	-664
249.011	665
249.075	1027
249.138	1548
249.202	-562
249.265	-764
249.328	-112
249.392	-1097
249.455	257
249.519	-481
249.582	-709
249.645	-348
249.709	-606
249.772	-641
249.835	-548
249.899	-1305
249.962	195
250.025	-805
250.089	-454
250.152	826
250.215	-239
250.279	-674
250.342	168
250.405	474
250.468	-828
250.532	322
250.595	855
250.658	1025
250.721	5416
250.785	569
250.848	1279
250.911	-1025
250.974	590
251.038	-1151
251.101	897
251.164	-302
251.227	-92
251.290	-757
251.354	178
251.417	4475
251.480	3635
251.543	1175
251.606	8116
251.669	6216
251.732	1124
251.795	1297
251.859	1184
251.922	4560
251.985	3137
252.048	1079
252.111	146
252.174	-980
252.237	256
252.300	1767
252.363	1473
252.426	7568
252.489	1618
252.552	754
252.615	-841
252.678	634
252.741	1434
252.804	1679
252.867	7670
252.930	2621
252.993	605
253.056	729
253.119	305
253.182	-757
253.245	-824
253.308	770
253.371	-990
253.434	-385
253.497	432
253.559	1043
253.622	-353
253.685	-153
253.748	-353
253.811	88
253.874	217
253.937	-319
254.000	-821
254.062	-346
254.125	54
254.188	1004
254.251	-818
254.314	415
254.376	-1158
254.439	-201
254.502	-78
254.565	-700
254.628	753
254.690	-1
254.753	-625
254.816	-99
254.878	-594
254.941	367
255.004	-318
255.067	-357
255.129	-852
255.192	81
255.255	-1572
255.317	-502
255.380	-733
255.443	93
255.505	-1101
255.568	-639
255.631	-1072
255.693	145
255.756	-1090
255.819	1009
255.881	-675
255.944	18
256.006	-1448
256.069	-809
256.132	-769
256.194	360
256.257	-499
256.319	-674
256.382	-99
256.444	443
256.507	-413
256.569	-185
256.632	-771
256.694	-1290
256.757	444
256.819	991
256.882	-861
256.944	-190
257.007	491
257.069	-582
257.132	-369
257.194	269
257.257	-296
257.319	-1058
257.381	-1153
257.444	248
257.506	677
257.569	970
257.631	-440
257.693	271
257.756	-909
257.818	-928
257.880	-1409
257.943	78
258.005	-1118
258.067	-469
258.130	-667
258.192	-808
258.254	-261
258.317	-82
258.379	-192
258.441	-1377
258.503	27
258.566	170
258.628	64
258.690	-1091
258.753	528
258.815	-38
258.877	-1297
258.939	-39
259.001	-730
259.064	-560
259.126	-1017
259.188	-812
259.250	758
259.312	863
259.375	-286
259.437	-338
259.499	-311
259.561	-354
259.623	-66
259.685	-637
259.747	-856
259.809	-214
259.872	323
259.934	768
259.996	411
260.058	276
260.120	-564
260.182	124
260.244	-664
260.306	-697
260.368	658
260.430	-615
260.492	-432
260.554	-36
260.616	-646
260.678	-116
260.740	314
260.802	-338
260.864	468
260.926	-1182
260.988	54
261.050	-438
261.112	-648
261.174	828
261.236	140
261.298	-494
261.359	-33
261.421	919
261.483	-1428
261.545	909
261.607	-1224
261.669	977
261.731	-488
261.793	-477
261.854	-1171
261.916	228
261.978	-757
262.040	628
262.102	10
262.164	-200
262.225	200
262.287	-84
262.349	-1138
262.411	48
262.472	602
262.534	-278
262.596	-528
262.658	210
262.719	-299
262.781	1067
262.843	-892
262.904	244
262.966	-457
263.028	249
263.090	1245
263.151	1779
263.213	430
263.275	-650
263.336	-210
263.398	613
263.459	-270
263.521	285
263.583	90
263.644	530
263.706	-260
263.767	-740
263.829	-584
263.891	-204
263.952	86
264.014	-492
264.075	-275
264.137	11
264.198	324
264.260	-297
264.321	-592
264.383	-409
264.444	1001
264.506	-274
264.567	-519
264.629	855
264.690	-519
264.752	29
264.813	-466
264.875	-841
264.936	889
264.998	-72
265.059	-367
265.120	378
265.182	-812
265.243	-830
265.305	-76
265.366	736
265.427	-27
265.489	181
265.550	-842
265.611	-170
265.673	-711
265.734	-313
265.795	-48
265.857	-304
265.918	-1642
265.979	542
266.040	409
266.102	334
266.163	29
266.224	-206
266.286	-1350
266.347	-912
266.408	-470
266.469	1023
266.530	-740
266.592	-3
266.653	-1030
266.714	150
266.775	-123
266.836	513
266.898	-608
266.959	483
267.020	372
267.081	653
267.142	134
267.203	-89
267.264	-767
267.326	1344
267.387	-487
267.448	-294
267.509	-25
267.570	813
267.631	-354
267.692	-711
267.753	-222
267.814	-713
267.875	134
267.936	-327
267.997	-187
268.058	-98
268.119	-848
268.180	-979
268.241	-858
268.302	404
268.363	-559
268.424	-343
268.485	-629
268.546	-1221
268.607	-508
268.668	-364
268.729	-656
268.790	-835
268.851	237
268.912	-560
268.972	-1036
269.033	-1000
269.094	-785
269.155	43
269.216	-833
269.277	-1057
269.338	-156
269.398	-210
269.459	-1581
269.520	342
269.581	-882
269.642	-326
269.702	-260
269.763	-23
269.824	-557
269.885	-710
269.945	-169
270.006	211
270.067	-425
270.128	-441
270.188	-993
270.249	-778
270.310	-621
270.370	-99
270.431	-733
270.492	-561
270.553	-759
270.613	230
270.674	-127
270.734	-955
270.795	-584
270.856	322
270.916	-1276
270.977	23
271.038	284
271.098	-777
271.159	-1001
271.219	-112
271.280	-306
271.340	260
271.401	-847
271.462	58
271.522	-1010
271.583	41
271.643	-810
271.704	126
271.764	553
271.825	-278
271.885	940
271.946	2121
272.006	-36
272.066	516
272.127	2010
272.187	1997
272.248	493
272.308	1117
272.369	1324
272.429	953
272.489	250
272.550	592
272.610	1193
272.671	229
272.731	167
272.791	-74
272.852	-386
272.912	48
272.972	336
273.033	176
273.093	-32
273.153	560
273.214	-4
273.274	1098
273.334	2108
273.394	2216
273.455	1019
273.515	2203
273.575	1417
273.635	2219
273.696	2495
273.756	3402
273.816	1637
273.876	2660
273.936	910
273.997	2195
274.057	-131
274.117	399
274.177	597
274.237	1099
274.297	1512
274.358	406
274.418	666
274.478	1018
274.538	2
274.598	-544
274.658	492
274.718	782
274.778	451
274.838	1203
274.898	-361
274.958	896
275.018	1272
275.078	565
275.138	510
275.198	-351
275.258	-576
275.318	-4
275.378	-897
275.438	157
275.498	-36
275.558	716
275.618	1303
275.678	-207
275.738	-39
275.798	968
275.858	-464
275.918	-266
275.978	-330
276.038	214
276.098	-567
276.157	-11
276.217	599
276.277	1055
276.337	-145
276.397	534
276.457	166
276.517	179
276.576	-153
276.636	610
276.696	-296
276.756	-177
276.815	56
276.875	657
276.935	332
276.995	979
277.055	871
277.114	-409
277.174	-29
277.234	657
277.293	186
277.353	130
277.413	889
277.472	425
277.532	451
277.592	2344
277.651	5876
277.711	13923
277.771	4425
277.830	13566
277.890	12999
277.950	8432
278.009	23935
278.069	11670
278.128	9504
278.188	14755
278.248	7157
278.307	16069
278.367	10128
